File: Accelerated corrosion test data/2025-10-22_18-00-04/sample_8.csv
Frequency (Hz),Impedance (ohms),Phase (Radians),Temperature (C),Humidity (%)
10000.0,303.993,-10972.8,0,0
11301.625,269.365,-9723.83,0,0
12603.25,248.867,-8732.53,0,0
13904.875,220.243,-7931.63,0,0
15206.5,201.155,-7257.27,0,0
16508.125,185.312,-6690.73,0,0
17809.75,172.292,-6203.78,0,0
19111.375,165.082,-5781.16,0,0
20413.0,158.679,-5419.88,0,0
21714.625,147.07,-5099.96,0,0
23016.25,142.01,-4816.65,0,0
24317.875,130.77,-4560.21,0,0
25619.5,123.58,-4326.25,0,0
26921.1,118.882,-4116.1,0,0
28222.7,116.275,-3926.31,0,0
29524.4,112.194,-3753.82,0,0
30826,107.931,-3595.77,0,0
32127.6,104.23,-3447.78,0,0
33429.2,104.391,-3310.57,0,0
34730.9,105.886,-3186.35,0,0
36032.5,108.864,-3076.58,0,0
37334.1,104.836,-2977.39,0,0
38635.7,94.3736,-2880.06,0,0
39937.4,86.7652,-2782.81,0,0
41239,84.0123,-2692.53,0,0
42540.6,81.3204,-2607.41,0,0
43842.225,80.1536,-2530.18,0,0
45143.85,76.1884,-2455.4,0,0
46445.475,73.4605,-2384.42,0,0
47747.1,71.5799,-2316.88,0,0
49048.725,69.5895,-2253.49,0,0
50350.35,67.7472,-2192.55,0,0
51651.975,66.7789,-2134.45,0,0
52953.6,66.3975,-2079.62,0,0
54255.225,65.3309,-2029.55,0,0
55556.85,62.3543,-1980.28,0,0
56858.475,60.3789,-1931.38,0,0
58160.1,59.499,-1885.07,0,0
59461.7,58.4923,-1841.22,0,0
60763.3,57.3765,-1798.37,0,0
62065,56.9459,-1757.53,0,0
63366.6,57.6901,-1718.51,0,0
64668.2,57.3838,-1682.06,0,0
65969.8,56.5719,-1646.9,0,0
67271.5,55.0279,-1612.22,0,0
68573.1,53.8172,-1578.35,0,0
69874.7,53.8948,-1545.22,0,0
71176.3,53.7323,-1514.1,0,0
72478,53.441,-1484.55,0,0
73779.6,52.5774,-1455.05,0,0
75081.2,51.8763,-1426.4,0,0
76382.825,51.6347,-1398.5,0,0
77684.45,51.1342,-1371.76,0,0
78986.075,50.4643,-1345.42,0,0
80287.7,49.9341,-1319.15,0,0
81589.325,50.1971,-1293.46,0,0
82890.95,51.113,-1268.51,0,0
84192.575,52.4711,-1245.47,0,0
85494.2,51.4663,-1223.05,0,0
86795.825,51.7807,-1199.39,0,0
88097.45,52.4398,-1176.92,0,0
89399.075,53.1012,-1154.01,0,0
90700.7,55.9708,-1131,0,0
92002.3,59.2059,-1111.93,0,0
93303.9,61.3879,-1091.84,0,0
94605.6,63.7304,-1073.61,0,0
95907.2,65.2665,-1054.26,0,0
97208.8,68.7683,-1034.9,0,0
98510.4,74.0083,-1016.92,0,0
99812.1,78.5938,-1001.84,0,0
101114,83.8231,-988.386,0,0
102415,86.3099,-977.553,0,0
103717,86.8403,-965.636,0,0
105019,85.4108,-953.67,0,0
106320.175,84.9892,-939.186,0,0
107621.8,84.8546,-925.933,0,0
108923.425,84.8719,-910.857,0,0
110225.05,86.5197,-897.771,0,0
111526.675,87.1454,-885.177,0,0
112828.3,87.8811,-873.213,0,0
114129.925,87.7055,-861.353,0,0
115431.55,87.4655,-849.751,0,0
116733.175,85.8192,-837.335,0,0
118034.8,85.8179,-824.547,0,0
119336.425,85.2156,-812.487,0,0
120638.05,84.2321,-799.84,0,0
121939.675,84.0141,-787.479,0,0
123241,83.2886,-775.39,0,0
124543,82.1545,-762.86,0,0
125845,80.7965,-749.769,0,0
127146,80.0153,-735.837,0,0
128448,79.958,-721.932,0,0
129749,79.8059,-708.115,0,0
131051,81.193,-693.549,0,0
132353,82.3678,-680.546,0,0
133654,82.9179,-667.301,0,0
134956,84.3658,-653.052,0,0
136258,86.5035,-640.349,0,0
137559,86.2566,-627.518,0,0
138860.775,86.5576,-611.51,0,0
140162.4,88.8331,-595.902,0,0
141464.025,91.236,-580.217,0,0
142765.65,94.0814,-562.829,0,0
144067.275,99.0426,-545.423,0,0
145368.9,105.8,-526.998,0,0
146670.525,115.047,-509.405,0,0
147972.15,124.249,-493.779,0,0
149273.775,135.587,-474.856,0,0
150575.4,155.353,-455.582,0,0
151877.025,181.931,-449.07,0,0
153178.65,199.215,-452.672,0,0
154480,209.87,-453.504,0,0
155782,224.296,-456.53,0,0
157084,220.262,-465.923,0,0
158385,220.986,-456.014,0,0
159687,227.302,-456.015,0,0
160988,218.86,-450.766,0,0
162290,226.687,-433.857,0,0
163592,236.791,-431.482,0,0
164893,242.279,-430.302,0,0
166195,240.101,-433.042,0,0
167497,228.04,-426.45,0,0
168798,218.963,-411.516,0,0
170100,214.609,-388.969,0,0
171401.375,215.051,-363.402,0,0
172703.0,224.399,-335.783,0,0
174004.625,236.911,-312.919,0,0
175306.25,247.469,-289.425,0,0
176607.875,264.301,-260.729,0,0
177909.5,283.573,-230.533,0,0
179211.125,316.957,-196.937,0,0
180512.75,360.219,-173.041,0,0
181814.375,409.62,-154.161,0,0
183116.0,467.39,-155.595,0,0
184417.625,506.181,-161.401,0,0
185719.25,556.949,-168.407,0,0
187021,601.616,-185.479,0,0
188322,641.606,-205.646,0,0
189624,674.89,-226.782,0,0
190926,714.734,-241.449,0,0
192227,753.229,-270.058,0,0
193529,800.646,-282.824,0,0
194831,875.569,-322.107,0,0
196132,947.391,-403.987,0,0
197434,983.733,-520.3,0,0
198735,969.703,-651.023,0,0
200037,902.658,-754.399,0,0
201339,826.742,-814.748,0,0
202640.35,735.972,-856.27,0,0
203941.975,661.265,-848.872,0,0
205243.6,603.26,-836.078,0,0
206545.225,563.72,-803.336,0,0
207846.85,552.795,-777.327,0,0
209148.475,548.549,-765.356,0,0
210450.1,548.986,-754.327,0,0
211751.725,558.137,-754.78,0,0
213053.35,564.806,-768.778,0,0
214354.975,563.567,-789.376,0,0
215656.6,555.12,-813.008,0,0
216958.225,537.621,-835.172,0,0
218259.85,515.515,-855.289,0,0
219561,485.892,-869.864,0,0
220863,453.305,-875.16,0,0
222165,425.746,-870.433,0,0
223466,406.624,-862.376,0,0
224768,393.953,-858.35,0,0
226070,382.778,-860.745,0,0
227371,365.668,-866.206,0,0
228673,346.455,-866.435,0,0
229974,328.132,-870.082,0,0
231276,303.362,-872.023,0,0
232578,275.942,-868.422,0,0
233879,247.345,-858.098,0,0
235180.95,222.662,-839.856,0,0
236482.575,205.365,-818.118,0,0
237784.2,193.923,-796.741,0,0
239085.825,188.776,-775.45,0,0
240387.45,188.51,-760.275,0,0
241689.075,187.128,-751.184,0,0
242990.7,181.454,-742.343,0,0
244292.325,175.28,-731.142,0,0
245593.95,171.482,-718.604,0,0
246895.575,171.002,-707.616,0,0
248197.2,169.36,-698.72,0,0
249498.825,167.428,-689.469,0,0
250800,166.714,-679.54,0,0
252102,168.803,-670.651,0,0
253404,171.498,-666.125,0,0
254705,170.095,-663.795,0,0
256007,164.923,-658.94,0,0
257309,160.316,-649.843,0,0
258610,159.305,-638.289,0,0
259912,162.855,-627.969,0,0
261213,166.996,-620.869,0,0
262515,170.103,-615.353,0,0
263817,173.078,-608.057,0,0
265118,177.874,-599.439,0,0
266420,188.006,-589.852,0,0
267721.55,205.416,-585.3,0,0
269023.175,224.615,-591.001,0,0
270324.8,241.872,-605.535,0,0
271626.425,250.943,-630.113,0,0
272928.05,248.274,-659.227,0,0
274229.675,228.247,-685.462,0,0
275531.3,200.068,-696.677,0,0
276832.925,173.59,-696.129,0,0
278134.55,152.081,-688.364,0,0
279436.175,135.622,-675.821,0,0
280737.8,126.486,-661.507,0,0
282039.425,122.534,-649.747,0,0
283341,120.416,-641.517,0,0
284643,118.224,-633.92,0,0
285944,118.431,-626.829,0,0
287246,121.605,-623.339,0,0
288548,122.515,-627.152,0,0
289849,115.159,-631.937,0,0
291151,104.33,-630.851,0,0
292452,94.2324,-626.684,0,0
293754,85.0161,-619.954,0,0
295056,77.714,-611.167,0,0
296357,72.8549,-602.21,0,0
297659,68.9675,-593.703,0,0
298960.525,65.8831,-584.973,0,0
300262.15,64.0236,-576.037,0,0
301563.775,63.7859,-567.341,0,0
302865.4,65.0083,-559.877,0,0
304167.025,66.6487,-553.738,0,0
305468.65,68.683,-548.787,0,0
306770.275,70.1737,-545.235,0,0
308071.9,71.6509,-542.32,0,0
309373.525,71.8238,-540.824,0,0
310675.15,70.7967,-538.368,0,0
311976.775,70.0061,-535.896,0,0
313278.4,68.593,-533.625,0,0
314580,66.874,-530.867,0,0
315882,64.8606,-527.605,0,0
317183,63.5247,-523.995,0,0
318485,62.1466,-520.383,0,0
319787,61.5842,-516.637,0,0
321088,61.1142,-513.773,0,0
322390,60.4602,-511.314,0,0
323691,59.0368,-509.241,0,0
324993,56.9054,-506.748,0,0
326295,54.582,-503.488,0,0
327596,52.7776,-499.764,0,0
328898,51.0925,-496.259,0,0
330200,49.4107,-492.352,0,0
331501.125,47.9013,-488.289,0,0
332802.75,46.6901,-483.87,0,0
334104.375,46.1446,-479.341,0,0
335406.0,46.3838,-475.195,0,0
336707.625,46.5405,-471.939,0,0
338009.25,46.3247,-469.219,0,0
339310.875,45.5767,-466.432,0,0
340612.5,44.592,-463.357,0,0
341914.125,43.4804,-459.884,0,0
343215.75,42.5467,-456.096,0,0
344517.375,41.8463,-452.056,0,0
345819.0,41.585,-447.862,0,0
347121,41.7612,-443.743,0,0
348422,42.1642,-439.848,0,0
349724,42.7892,-436.013,0,0
351025,43.8922,-432.477,0,0
352327,45.0616,-429.447,0,0
353629,46.171,-426.793,0,0
354930,47.0687,-424.377,0,0
356232,47.9474,-422.143,0,0
357534,48.5948,-420.049,0,0
358835,49.1351,-417.931,0,0
360137,49.6492,-415.891,0,0
361438,50.0908,-413.869,0,0
362740.1,50.4739,-412.018,0,0
364041.725,50.7765,-410.178,0,0
365343.35,50.9017,-408.357,0,0
366644.975,50.9459,-406.409,0,0
367946.6,51.0587,-404.371,0,0
369248.225,51.2788,-402.079,0,0
370549.85,52.1339,-400.008,0,0
371851.475,53.0418,-398.893,0,0
373153.1,53.2921,-398.188,0,0
374454.725,52.664,-397.58,0,0
375756.35,51.5121,-396.025,0,0
377057.975,50.9468,-394.007,0,0
378359.6,50.4072,-392.502,0,0
379661,49.1917,-390.379,0,0
380963,49.1007,-387.425,0,0
382264,49.924,-385.839,0,0
383566,49.5454,-385.133,0,0
384868,48.1076,-383.978,0,0
386169,46.3918,-381.919,0,0
387471,44.8344,-379.186,0,0
388773,43.9518,-375.91,0,0
390074,43.6216,-372.732,0,0
391376,43.4842,-369.816,0,0
392677,43.4185,-367.073,0,0
393979,43.2627,-364.231,0,0
395280.7,43.3203,-361.244,0,0
396582.325,43.6628,-358.391,0,0
397883.95,44.0778,-355.681,0,0
399185.575,44.4597,-353.136,0,0
400006.6,44.6917,-351.518,0,0