File: Accelerated corrosion test data/2025-10-22_18-00-04/sample_2.csv
Frequency (Hz),Impedance (ohms),Phase (Radians),Temperature (C),Humidity (%)
10000.0,234.35,-11449.5,0,0
11301.625,208.601,-10140.6,0,0
12603.25,187.324,-9104.56,0,0
13904.875,187.297,-8251.77,0,0
15206.5,170.475,-7563.16,0,0
16508.125,145.684,-6970.15,0,0
17809.75,134.934,-6461.41,0,0
19111.375,130.381,-6021.37,0,0
20413.0,120.038,-5637.13,0,0
21714.625,130.117,-5307.57,0,0
23016.25,114.034,-5011.25,0,0
24317.875,104.309,-4744.89,0,0
25619.5,98.4558,-4500.42,0,0
26921.1,96.1584,-4282.01,0,0
28222.7,90.8371,-4082.55,0,0
29524.4,93.655,-3898.41,0,0
30826,88.949,-3744.09,0,0
32127.6,83.0198,-3589.98,0,0
33429.2,80.4207,-3451.08,0,0
34730.9,76.5647,-3319.96,0,0
36032.5,73.89,-3198.48,0,0
37334.1,71.4417,-3084.73,0,0
38635.7,69.2336,-2979.43,0,0
39937.4,67.4282,-2880.33,0,0
41239,66.0393,-2787.22,0,0
42540.6,65.1555,-2700.52,0,0
43842.225,63.6844,-2618.26,0,0
45143.85,62.4914,-2540.59,0,0
46445.475,61.7771,-2468.02,0,0
47747.1,60.8428,-2398.7,0,0
49048.725,60.9367,-2334.76,0,0
50350.35,58.1946,-2272.51,0,0
51651.975,56.8315,-2213.21,0,0
52953.6,55.4224,-2155.6,0,0
54255.225,54.6245,-2100.92,0,0
55556.85,54.1481,-2048.87,0,0
56858.475,54.0053,-1998.9,0,0
58160.1,54.3051,-1951.47,0,0
59461.7,54.9195,-1905.31,0,0
60763.3,56.7545,-1862.8,0,0
62065,59.1204,-1824.53,0,0
63366.6,55.8326,-1787.7,0,0
64668.2,52.8781,-1749.61,0,0
65969.8,51.0056,-1710.15,0,0
67271.5,51.4873,-1672.75,0,0
68573.1,54.2001,-1638.86,0,0
69874.7,55.7636,-1608.34,0,0
71176.3,52.431,-1580.44,0,0
72478,47.9923,-1549.88,0,0
73779.6,45.4249,-1516.7,0,0
75081.2,45.3076,-1484.22,0,0
76382.825,47.1541,-1453.86,0,0
77684.45,49.9822,-1425.48,0,0
78986.075,53.096,-1401.43,0,0
80287.7,52.0318,-1379.8,0,0
81589.325,49.2095,-1354.63,0,0
82890.95,48.1641,-1328.83,0,0
84192.575,48.8436,-1304.13,0,0
85494.2,49.5086,-1280.56,0,0
86795.825,50.6767,-1258.31,0,0
88097.45,51.2338,-1237.06,0,0
89399.075,51.5549,-1215.72,0,0
90700.7,51.5569,-1195.55,0,0
92002.3,53.0843,-1174.07,0,0
93303.9,54.9842,-1155.17,0,0
94605.6,55.5558,-1138.87,0,0
95907.2,54.6821,-1119.12,0,0
97208.8,58.0974,-1101.93,0,0
98510.4,57.4372,-1088.13,0,0
99812.1,53.6099,-1073.01,0,0
101114,50.6301,-1055.81,0,0
102415,46.9948,-1035.75,0,0
103717,46.2274,-1014.45,0,0
105019,49.6792,-994.188,0,0
106320.175,54.2614,-976.905,0,0
107621.8,58.102,-965.057,0,0
108923.425,56.3191,-953.293,0,0
110225.05,53.0824,-937.901,0,0
111526.675,51.7631,-919.909,0,0
112828.3,52.3143,-902.492,0,0
114129.925,54.043,-885.29,0,0
115431.55,56.7723,-868.749,0,0
116733.175,60.3855,-853.327,0,0
118034.8,64.3047,-839.127,0,0
119336.425,68.489,-827.141,0,0
120638.05,70.7812,-816.976,0,0
121939.675,70.2951,-806.246,0,0
123241,69.1954,-793.502,0,0
124543,68.5071,-779.882,0,0
125845,68.1702,-764.978,0,0
127146,69.6385,-749.459,0,0
128448,72.3251,-735.159,0,0
129749,75.0707,-721.688,0,0
131051,77.8616,-708.915,0,0
132353,79.1713,-696.506,0,0
133654,80.6885,-682.754,0,0
134956,81.8948,-668.856,0,0
136258,84.1935,-653.658,0,0
137559,87.3808,-638.406,0,0
138860.775,90.839,-623.54,0,0
140162.4,94.0888,-607.453,0,0
141464.025,99.974,-589.011,0,0
142765.65,109.554,-572.017,0,0
144067.275,119.403,-556.56,0,0
145368.9,130.73,-541.835,0,0
146670.525,143.148,-527.732,0,0
147972.15,157.687,-513.561,0,0
149273.775,177.9,-499.469,0,0
150575.4,205.998,-495.226,0,0
151877.025,228.458,-506.012,0,0
153178.65,237.513,-521.901,0,0
154480,235.554,-532.384,0,0
155782,232.125,-534.76,0,0
157084,226.378,-535.02,0,0
158385,223.734,-529.34,0,0
159687,222.675,-523.549,0,0
160988,222.978,-516.236,0,0
162290,230.693,-513.634,0,0
163592,226.254,-519.105,0,0
164893,212.813,-515.428,0,0
166195,200.859,-501.908,0,0
167497,194.187,-483.703,0,0
168798,190.313,-462.9,0,0
170100,191.419,-439.467,0,0
171401.375,196.365,-416.934,0,0
172703.0,204.434,-393.1,0,0
174004.625,217.051,-369.061,0,0
175306.25,235.951,-345.769,0,0
176607.875,260.518,-326.916,0,0
177909.5,288.271,-316.671,0,0
179211.125,310.793,-316.366,0,0
180512.75,320.286,-316.113,0,0
181814.375,326.759,-298.745,0,0
183116.0,343.801,-280.176,0,0
184417.625,366.857,-257.122,0,0
185719.25,400.008,-238.567,0,0
187021,438.274,-224.503,0,0
188322,481.132,-217.969,0,0
189624,519.653,-216.755,0,0
190926,564.516,-209.731,0,0
192227,624.587,-208.798,0,0
193529,696.235,-225.023,0,0
194831,765.097,-269.95,0,0
196132,816.9,-330.223,0,0
197434,857.524,-394.023,0,0
198735,890.031,-473.951,0,0
200037,899.934,-558.219,0,0
201339,891.608,-646.653,0,0
202640.35,856.293,-723.036,0,0
203941.975,812.896,-786.11,0,0
205243.6,760.366,-839.297,0,0
206545.225,694.464,-869.217,0,0
207846.85,638.793,-878.677,0,0
209148.475,601.63,-882.65,0,0
210450.1,562.98,-895.691,0,0
211751.725,515.469,-900.58,0,0
213053.35,474.324,-890.075,0,0
214354.975,441.776,-876.482,0,0
215656.6,415.081,-861.551,0,0
216958.225,394.268,-843.767,0,0
218259.85,379.888,-827.662,0,0
219561,369.464,-812.766,0,0
220863,362.77,-800.493,0,0
222165,359.582,-790.327,0,0
223466,357.38,-785.154,0,0
224768,355.087,-781.714,0,0
226070,351.981,-780.001,0,0
227371,350.879,-780.239,0,0
228673,349.832,-785.8,0,0
229974,342.492,-795.93,0,0
231276,330.066,-803.049,0,0
232578,315.194,-809.429,0,0
233879,297.071,-811.97,0,0
235180.95,279.176,-810.836,0,0
236482.575,262.215,-807.987,0,0
237784.2,244.684,-802.737,0,0
239085.825,229.388,-794.925,0,0
240387.45,215.007,-786.336,0,0
241689.075,202.635,-776.22,0,0
242990.7,192.615,-765.55,0,0
244292.325,184.801,-756.549,0,0
245593.95,176.65,-749.995,0,0
246895.575,164.838,-743.716,0,0
248197.2,151.89,-733.376,0,0
249498.825,140.117,-720.243,0,0
250800,130.662,-704.598,0,0
252102,124.912,-687.326,0,0
253404,122.16,-671.276,0,0
254705,120.657,-655.622,0,0
256007,121.645,-639.359,0,0
257309,125.656,-625.057,0,0
258610,131.129,-612.343,0,0
259912,138.311,-601.425,0,0
261213,146.927,-593.069,0,0
262515,155.659,-587.616,0,0
263817,163.575,-584.513,0,0
265118,170.793,-583.316,0,0
266420,176.159,-583.814,0,0
267721.55,179.938,-584.447,0,0
269023.175,182.225,-585.544,0,0
270324.8,182.925,-585.059,0,0
271626.425,184.835,-582.002,0,0
272928.05,190.11,-578.913,0,0
274229.675,199.11,-577.941,0,0
275531.3,211.59,-584.873,0,0
276832.925,216.884,-601.463,0,0
278134.55,211.643,-617.376,0,0
279436.175,200.776,-628.43,0,0
280737.8,187.782,-634.428,0,0
282039.425,175.125,-637.428,0,0
283341,160.149,-637.396,0,0
284643,148.21,-632.049,0,0
285944,136.046,-627.766,0,0
287246,122.456,-617.634,0,0
288548,113.851,-600.352,0,0
289849,115.749,-581.318,0,0
291151,126.873,-567.78,0,0
292452,142.436,-566.127,0,0
293754,149.341,-575.506,0,0
295056,145.345,-580.504,0,0
296357,146.951,-578.661,0,0
297659,149.947,-588.473,0,0
298960.525,140.732,-596.633,0,0
300262.15,130.008,-597.594,0,0
301563.775,122.043,-594.546,0,0
302865.4,117.312,-591.613,0,0
304167.025,112.83,-591.267,0,0
305468.65,105.632,-591.122,0,0
306770.275,97.133,-588.359,0,0
308071.9,89.569,-583.703,0,0
309373.525,83.0238,-577.953,0,0
310675.15,77.5484,-571.811,0,0
311976.775,72.8459,-565.276,0,0
313278.4,69.1044,-558.597,0,0
314580,66.022,-552.043,0,0
315882,63.6056,-545.684,0,0
317183,61.473,-539.33,0,0
318485,60.0139,-533.043,0,0
319787,58.9889,-527.259,0,0
321088,57.9147,-521.682,0,0
322390,56.9284,-516.018,0,0
323691,56.1725,-510.108,0,0
324993,56.1539,-503.487,0,0
326295,58.2836,-496.94,0,0
327596,61.6671,-492.924,0,0
328898,63.8694,-490.395,0,0
330200,65.8638,-488.623,0,0
331501.125,66.9487,-487.985,0,0
332802.75,66.3564,-488.018,0,0
334104.375,63.9304,-486.98,0,0
335406.0,61.4759,-484.335,0,0
336707.625,59.3712,-481.119,0,0
338009.25,57.5678,-477.544,0,0
339310.875,56.1328,-473.644,0,0
340612.5,54.8851,-469.392,0,0
341914.125,54.1629,-464.939,0,0
343215.75,53.8469,-460.405,0,0
344517.375,54.0211,-455.895,0,0
345819.0,54.7526,-451.582,0,0
347121,55.8369,-447.625,0,0
348422,57.1674,-443.923,0,0
349724,58.9642,-440.621,0,0
351025,60.8318,-438.01,0,0
352327,62.3025,-436.087,0,0
353629,63.4772,-434.012,0,0
354930,64.6309,-432.011,0,0
356232,65.8265,-430.019,0,0
357534,67.5536,-428.16,0,0
358835,69.3947,-427.177,0,0
360137,70.7974,-426.97,0,0
361438,71.3955,-427.087,0,0
362740.1,71.3786,-427.179,0,0
364041.725,70.8325,-427.174,0,0
365343.35,69.8098,-426.603,0,0
366644.975,68.7907,-425.522,0,0
367946.6,68.183,-424.058,0,0
369248.225,68.1394,-423.069,0,0
370549.85,67.3393,-422.763,0,0
371851.475,66.0802,-421.825,0,0
373153.1,65.2289,-420.843,0,0
374454.725,63.9852,-420.078,0,0
375756.35,62.3858,-419.017,0,0
377057.975,60.8754,-417.634,0,0
378359.6,59.3935,-416.596,0,0
379661,56.6082,-415.46,0,0
380963,54.0556,-411.906,0,0
382264,54.0256,-409.163,0,0
383566,52.8312,-407.952,0,0
384868,50.7874,-406.054,0,0
386169,48.7266,-403.361,0,0
387471,47.0229,-400.205,0,0
388773,45.6937,-396.639,0,0
390074,45.3255,-392.925,0,0
391376,45.6282,-390.157,0,0
392677,45.1603,-388.488,0,0
393979,43.4658,-386.237,0,0
395280.7,41.6988,-382.725,0,0
396582.325,40.8673,-378.567,0,0
397883.95,40.8294,-374.366,0,0
399185.575,41.3815,-370.569,0,0
400006.6,41.8897,-368.381,0,0