File: Accelerated corrosion test data/2025-10-22_18-00-04/sample_1.csv
Frequency (Hz),Impedance (ohms),Phase (Radians),Temperature (C),Humidity (%)
10000.0,242.479,-12194.8,0,0
11301.625,216.772,-10801.6,0,0
12603.25,196.598,-9702.24,0,0
13904.875,184.153,-8779.49,0,0
15206.5,191.766,-8046.72,0,0
16508.125,156.068,-7424.54,0,0
17809.75,146.493,-6887.93,0,0
19111.375,136.676,-6420.32,0,0
20413.0,156.87,-5977.34,0,0
21714.625,135.811,-5659.87,0,0
23016.25,122.768,-5359.13,0,0
24317.875,113.798,-5066.62,0,0
25619.5,105.577,-4802.28,0,0
26921.1,114.197,-4552.49,0,0
28222.7,110.557,-4349.82,0,0
29524.4,108.034,-4184.8,0,0
30826,101.685,-3997.17,0,0
32127.6,98.2789,-3839.61,0,0
33429.2,89.7258,-3696.39,0,0
34730.9,82.192,-3554.29,0,0
36032.5,78.242,-3423.12,0,0
37334.1,75.7313,-3301.25,0,0
38635.7,73.0553,-3187.35,0,0
39937.4,71.1534,-3080.85,0,0
41239,72.527,-2981.92,0,0
42540.6,70.5243,-2889.67,0,0
43842.225,68.1355,-2803.15,0,0
45143.85,68.5999,-2722.14,0,0
46445.475,65.3573,-2644.92,0,0
47747.1,64.0894,-2571.81,0,0
49048.725,61.7997,-2501.58,0,0
50350.35,59.6964,-2435.05,0,0
51651.975,59.0006,-2371.5,0,0
52953.6,57.8181,-2310.5,0,0
54255.225,56.8291,-2253.83,0,0
55556.85,55.8481,-2198.18,0,0
56858.475,54.8904,-2145.19,0,0
58160.1,54.6648,-2094.69,0,0
59461.7,54.337,-2046.79,0,0
60763.3,54.4986,-2000.9,0,0
62065,53.0883,-1957.06,0,0
63366.6,52.6166,-1913.6,0,0
64668.2,53.0029,-1871.26,0,0
65969.8,55.0793,-1833.65,0,0
67271.5,53.8541,-1797.31,0,0
68573.1,53.3358,-1761.5,0,0
69874.7,52.2542,-1727.58,0,0
71176.3,50.2157,-1692.77,0,0
72478,48.404,-1659.36,0,0
73779.6,48.0807,-1625.92,0,0
75081.2,48.4844,-1593.45,0,0
76382.825,49.0398,-1562.74,0,0
77684.45,50.2727,-1533.33,0,0
78986.075,51.8389,-1505.83,0,0
80287.7,51.0166,-1479.24,0,0
81589.325,50.4169,-1451.54,0,0
82890.95,51.084,-1424.74,0,0
84192.575,52.6394,-1398.66,0,0
85494.2,54.5698,-1373.91,0,0
86795.825,55.7365,-1350.65,0,0
88097.45,56.0907,-1327.43,0,0
89399.075,57.8608,-1302.62,0,0
90700.7,61.1266,-1279.75,0,0
92002.3,67.4776,-1258.56,0,0
93303.9,74.8874,-1240.69,0,0
94605.6,73.3757,-1234.7,0,0
95907.2,67.0424,-1215.26,0,0
97208.8,65.2728,-1194.93,0,0
98510.4,64.3156,-1174.83,0,0
99812.1,63.4222,-1155.28,0,0
101114,63.1147,-1134.96,0,0
102415,63.5812,-1113.18,0,0
103717,68.7332,-1091.96,0,0
105019,75.3785,-1075.2,0,0
106320.175,80.964,-1058.95,0,0
107621.8,87.4459,-1046.15,0,0
108923.425,91.8394,-1035.22,0,0
110225.05,94.1687,-1026.73,0,0
111526.675,94.0925,-1014.55,0,0
112828.3,97.2255,-1004.64,0,0
114129.925,95.8254,-997.506,0,0
115431.55,92.1732,-987.85,0,0
116733.175,87.9414,-975.974,0,0
118034.8,83.3303,-961.889,0,0
119336.425,81.2775,-946.431,0,0
120638.05,81.4255,-932.031,0,0
121939.675,80.2518,-919.407,0,0
123241,78.9101,-904.59,0,0
124543,78.9463,-889.861,0,0
125845,79.4986,-875.101,0,0
127146,80.6473,-860.681,0,0
128448,82.4581,-846.181,0,0
129749,85.3845,-832.121,0,0
131051,89.9467,-819.162,0,0
132353,94.0807,-808.305,0,0
133654,96.8235,-797.8,0,0
134956,99.818,-786.945,0,0
136258,102.96,-776.214,0,0
137559,108.067,-766.655,0,0
138860.775,110.086,-760.919,0,0
140162.4,109.334,-752.112,0,0
141464.025,109.474,-742.171,0,0
142765.65,110.123,-731.381,0,0
144067.275,111.554,-719.962,0,0
145368.9,114.061,-708.548,0,0
146670.525,117.52,-699.004,0,0
147972.15,118.83,-690.956,0,0
149273.775,120.302,-680.31,0,0
150575.4,121.491,-671.082,0,0
151877.025,120.778,-659.836,0,0
153178.65,120.838,-645.046,0,0
154480,124.7,-628.834,0,0
155782,131.606,-612.082,0,0
157084,143.66,-596.389,0,0
158385,155.87,-587.796,0,0
159687,164.916,-576.084,0,0
160988,183.161,-564.242,0,0
162290,202.992,-564.432,0,0
163592,213.948,-566.861,0,0
164893,227.344,-566.99,0,0
166195,240.264,-574.246,0,0
167497,247.295,-584.988,0,0
168798,246.394,-597.793,0,0
170100,237.589,-605.153,0,0
171401.375,228.814,-603.427,0,0
172703.0,224.466,-598.247,0,0
174004.625,222.223,-594.298,0,0
175306.25,220.458,-589.808,0,0
176607.875,219.415,-586.879,0,0
177909.5,217.625,-582.867,0,0
179211.125,215.009,-581.973,0,0
180512.75,206.404,-579.782,0,0
181814.375,198.245,-570.397,0,0
183116.0,191.905,-558.996,0,0
184417.625,187.349,-544.663,0,0
185719.25,186.332,-529.28,0,0
187021,187.365,-514.471,0,0
188322,191.131,-499.239,0,0
189624,194.714,-485.997,0,0
190926,197.599,-470.834,0,0
192227,203.38,-453.867,0,0
193529,211.697,-436.241,0,0
194831,222.763,-419.307,0,0
196132,236.202,-401.969,0,0
197434,252.901,-385.984,0,0
198735,271.393,-371.471,0,0
200037,291.008,-355.92,0,0
201339,315.692,-340.528,0,0
202640.35,348.108,-324.117,0,0
203941.975,391.625,-314.674,0,0
205243.6,443.142,-322.346,0,0
206545.225,488.01,-348.857,0,0
207846.85,517.266,-385.238,0,0
209148.475,534.405,-424.684,0,0
210450.1,534.105,-463.914,0,0
211751.725,520.643,-482.231,0,0
213053.35,521.38,-482.778,0,0
214354.975,534.378,-493.518,0,0
215656.6,544.861,-508.251,0,0
216958.225,555.367,-523.329,0,0
218259.85,565.962,-540.581,0,0
219561,580.144,-556.097,0,0
220863,599.576,-580.16,0,0
222165,617.566,-617.373,0,0
223466,624.389,-665.567,0,0
224768,614.355,-715.514,0,0
226070,595.619,-760.593,0,0
227371,564.33,-803.707,0,0
228673,522.575,-836.879,0,0
229974,475.108,-854.281,0,0
231276,432.576,-858.419,0,0
232578,396.532,-855.747,0,0
233879,367.383,-848.954,0,0
235180.95,344.499,-843.988,0,0
236482.575,320.591,-840.494,0,0
237784.2,296.41,-834.366,0,0
239085.825,274.017,-825.062,0,0
240387.45,254.525,-814.07,0,0
241689.075,237.712,-802.403,0,0
242990.7,222.743,-790.06,0,0
244292.325,210.873,-778.281,0,0
245593.95,199.225,-767.71,0,0
246895.575,187.39,-756.637,0,0
248197.2,177.198,-743.919,0,0
249498.825,168.496,-731.438,0,0
250800,161.517,-718.52,0,0
252102,155.61,-706.763,0,0
253404,149.94,-694.382,0,0
254705,146.439,-681.358,0,0
256007,144.481,-669.777,0,0
257309,142.779,-658.49,0,0
258610,142.151,-646.851,0,0
259912,143.918,-635.243,0,0
261213,147.94,-625.728,0,0
262515,152.568,-618.439,0,0
263817,157.622,-612.906,0,0
265118,163.636,-609.117,0,0
266420,170.442,-609.469,0,0
267721.55,173.907,-615.355,0,0
269023.175,169.636,-622.691,0,0
270324.8,159.664,-625.043,0,0
271626.425,148.82,-620.916,0,0
272928.05,141.734,-612.157,0,0
274229.675,138.808,-603.13,0,0
275531.3,137.744,-595.058,0,0
276832.925,138.762,-588.057,0,0
278134.55,140.761,-583.191,0,0
279436.175,141.867,-580.584,0,0
280737.8,141.416,-577.963,0,0
282039.425,141.211,-575.703,0,0
283341,138.792,-573.681,0,0
284643,136.937,-569.518,0,0
285944,135.335,-566.474,0,0
287246,131.542,-562.399,0,0
288548,129.436,-554.67,0,0
289849,131.317,-547.413,0,0
291151,134.212,-543.627,0,0
292452,134.712,-540.94,0,0
293754,134.303,-536.993,0,0
295056,134.482,-531.706,0,0
296357,136.487,-525.074,0,0
297659,140.995,-520.02,0,0
298960.525,146.002,-516.615,0,0
300262.15,151.016,-514.03,0,0
301563.775,157.633,-512.222,0,0
302865.4,164.394,-514.267,0,0
304167.025,169.195,-517.121,0,0
305468.65,173.29,-521.121,0,0
306770.275,176.9,-526.421,0,0
308071.9,178.348,-533.874,0,0
309373.525,176.779,-541.062,0,0
310675.15,173.91,-547.321,0,0
311976.775,169.159,-553.227,0,0
313278.4,162.897,-557.541,0,0
314580,156.553,-560.313,0,0
315882,150.011,-562.755,0,0
317183,142.193,-564.336,0,0
318485,133.809,-564.207,0,0
319787,125.414,-562.378,0,0
321088,117.798,-558.989,0,0
322390,110.885,-554.096,0,0
323691,106.085,-547.796,0,0
324993,103.309,-542.143,0,0
326295,102.011,-537.45,0,0
327596,101.038,-534.367,0,0
328898,99.4304,-532.178,0,0
330200,97.2336,-530.456,0,0
331501.125,94.503,-528.882,0,0
332802.75,91.038,-526.963,0,0
334104.375,87.2097,-524.698,0,0
335406.0,83.1246,-521.613,0,0
336707.625,79.488,-517.694,0,0
338009.25,76.3966,-513.69,0,0
339310.875,73.6129,-509.459,0,0
340612.5,71.2502,-505.364,0,0
341914.125,69.0939,-501.34,0,0
343215.75,67.0132,-497.419,0,0
344517.375,64.8782,-493.411,0,0
345819.0,62.7454,-489.214,0,0
347121,60.8251,-484.738,0,0
348422,59.3333,-479.836,0,0
349724,58.4213,-475.267,0,0
351025,57.7437,-470.85,0,0
352327,57.2791,-466.555,0,0
353629,56.9177,-462.569,0,0
354930,56.5467,-458.536,0,0
356232,56.2898,-454.587,0,0
357534,56.2032,-450.755,0,0
358835,56.1213,-446.895,0,0
360137,56.3102,-443.07,0,0
361438,56.6231,-439.476,0,0
362740.1,56.7337,-436.003,0,0
364041.725,56.9852,-432.194,0,0
365343.35,57.6484,-428.649,0,0
366644.975,58.2196,-425.344,0,0
367946.6,58.3975,-421.568,0,0
369248.225,59.3682,-417.276,0,0
370549.85,61.1977,-413.054,0,0
371851.475,63.9505,-409.309,0,0
373153.1,67.3323,-406.696,0,0
374454.725,70.4816,-405.148,0,0
375756.35,73.1299,-404.267,0,0
377057.975,75.5581,-403.747,0,0
378359.6,77.5592,-403.824,0,0
379661,78.7363,-404.04,0,0
380963,80.1362,-403.72,0,0
382264,82.0297,-404.659,0,0
383566,82.6821,-406.926,0,0
384868,81.2894,-408.995,0,0
386169,79.0244,-409.93,0,0
387471,76.2533,-409.973,0,0
388773,73.4926,-408.845,0,0
390074,71.5696,-407.061,0,0
391376,70.0764,-405.616,0,0
392677,68.175,-404.382,0,0
393979,65.8226,-402.722,0,0
395280.7,63.4922,-400.315,0,0
396582.325,61.4072,-397.427,0,0
397883.95,59.7851,-394.002,0,0
399185.575,58.7483,-390.449,0,0
400006.6,58.358,-388.247,0,0