File: Accelerated corrosion test data/2025-10-22_18-00-04/sample_3.csv
Frequency (Hz),Impedance (ohms),Phase (Radians),Temperature (C),Humidity (%)
10000.0,253.759,-11884.6,0,0
11301.625,225.49,-10526.8,0,0
12603.25,204.271,-9447.77,0,0
13904.875,187.753,-8567.44,0,0
15206.5,175.516,-7829.62,0,0
16508.125,162.779,-7231.57,0,0
17809.75,157.85,-6699.35,0,0
19111.375,146.665,-6246.19,0,0
20413.0,166.962,-5843,0,0
21714.625,140.172,-5517.35,0,0
23016.25,128.976,-5209.76,0,0
24317.875,120.351,-4928.59,0,0
25619.5,114.477,-4678.36,0,0
26921.1,109.354,-4446.73,0,0
28222.7,104.354,-4237.32,0,0
29524.4,108.943,-4059.78,0,0
30826,102.27,-3886.26,0,0
32127.6,102.732,-3720.24,0,0
33429.2,99.6113,-3596.22,0,0
34730.9,88.1299,-3456.65,0,0
36032.5,83.8534,-3327.55,0,0
37334.1,80.6927,-3208.78,0,0
38635.7,78.5324,-3098.05,0,0
39937.4,76.1122,-2994.65,0,0
41239,74.6408,-2896.59,0,0
42540.6,73.6183,-2806.17,0,0
43842.225,72.2052,-2720.38,0,0
45143.85,71.4738,-2640.07,0,0
46445.475,69.9954,-2563.52,0,0
47747.1,70.6072,-2490.67,0,0
49048.725,68.7847,-2424.46,0,0
50350.35,66.7401,-2358.94,0,0
51651.975,66.3003,-2295.68,0,0
52953.6,66.4795,-2235.64,0,0
54255.225,69.3008,-2180.09,0,0
55556.85,66.8276,-2131.96,0,0
56858.475,61.991,-2078.97,0,0
58160.1,61.2955,-2026.46,0,0
59461.7,61.7116,-1976.92,0,0
60763.3,63.0585,-1929.95,0,0
62065,64.9131,-1884.58,0,0
63366.6,68.9315,-1840.25,0,0
64668.2,77.7873,-1798.32,0,0
65969.8,91.8502,-1773.35,0,0
67271.5,75.7948,-1746.88,0,0
68573.1,76.1711,-1708.98,0,0
69874.7,76.8864,-1679.51,0,0
71176.3,71.4788,-1649.34,0,0
72478,70.489,-1616.19,0,0
73779.6,69.0848,-1587.92,0,0
75081.2,65.3823,-1559.78,0,0
76382.825,61.6621,-1530.73,0,0
77684.45,58.853,-1501.69,0,0
78986.075,56.3931,-1472.95,0,0
80287.7,54.727,-1444.65,0,0
81589.325,53.6656,-1417.26,0,0
82890.95,53.0356,-1390.67,0,0
84192.575,52.732,-1364.74,0,0
85494.2,52.5384,-1339.63,0,0
86795.825,52.606,-1315.14,0,0
88097.45,53.0449,-1291.14,0,0
89399.075,54.5187,-1267.26,0,0
90700.7,56.4067,-1245.52,0,0
92002.3,58.2839,-1224.64,0,0
93303.9,60.8195,-1205.24,0,0
94605.6,61.3586,-1190.36,0,0
95907.2,56.4403,-1172.02,0,0
97208.8,55.2827,-1150.56,0,0
98510.4,55.1145,-1130.46,0,0
99812.1,54.9261,-1111.13,0,0
101114,54.7081,-1091.24,0,0
102415,56.2952,-1070.72,0,0
103717,60.0683,-1052.85,0,0
105019,63.2184,-1038.35,0,0
106320.175,63.244,-1024.31,0,0
107621.8,61.5734,-1008.94,0,0
108923.425,59.6714,-991.752,0,0
110225.05,59.5469,-973.472,0,0
111526.675,61.7235,-955.545,0,0
112828.3,63.7662,-939.46,0,0
114129.925,65.0732,-923.605,0,0
115431.55,66.7692,-906.61,0,0
116733.175,70.1735,-889.772,0,0
118034.8,76.1306,-873.208,0,0
119336.425,82.6731,-860.769,0,0
120638.05,90.1649,-854.709,0,0
121939.675,86.0011,-846.389,0,0
123241,86.5938,-832.402,0,0
124543,88.5754,-820.521,0,0
125845,90.6244,-809.783,0,0
127146,90.8125,-800.105,0,0
128448,89.7644,-789.814,0,0
129749,88.5849,-777.544,0,0
131051,89.4711,-765.539,0,0
132353,88.4968,-754.665,0,0
133654,87.1906,-743.109,0,0
134956,85.6619,-730.423,0,0
136258,84.0634,-717.19,0,0
137559,83.3976,-701.912,0,0
138860.775,84.731,-688.333,0,0
140162.4,84.1934,-675.252,0,0
141464.025,82.887,-661.338,0,0
142765.65,81.9531,-645.125,0,0
144067.275,82.135,-627.91,0,0
145368.9,83.6853,-609.82,0,0
146670.525,86.101,-590.994,0,0
147972.15,90.2155,-571.208,0,0
149273.775,96.2854,-550.813,0,0
150575.4,106.431,-530.654,0,0
151877.025,118.958,-513.502,0,0
153178.65,130.464,-499.893,0,0
154480,140.34,-486.453,0,0
155782,149.998,-470.996,0,0
157084,161.754,-453.82,0,0
158385,176.725,-443.347,0,0
159687,181.362,-428.302,0,0
160988,194.285,-403.753,0,0
162290,216.71,-377.506,0,0
163592,248.814,-351.343,0,0
164893,298.412,-337.044,0,0
166195,353.097,-344.232,0,0
167497,395.106,-377.216,0,0
168798,414.22,-414.82,0,0
170100,415.116,-450.091,0,0
171401.375,406.173,-464.08,0,0
172703.0,407.783,-468.387,0,0
174004.625,412.843,-481.493,0,0
175306.25,419.039,-495.463,0,0
176607.875,420.364,-523.348,0,0
177909.5,392.247,-540.992,0,0
179211.125,369.094,-530.712,0,0
180512.75,365.335,-518.445,0,0
181814.375,370.082,-514.31,0,0
183116.0,369.458,-521.013,0,0
184417.625,354.321,-524.201,0,0
185719.25,337.074,-515.477,0,0
187021,330.026,-493.461,0,0
188322,331.24,-477.091,0,0
189624,333.894,-457.751,0,0
190926,344.037,-443.369,0,0
192227,351.408,-429.162,0,0
193529,363.157,-409.993,0,0
194831,383.699,-393.285,0,0
196132,414.73,-382.354,0,0
197434,441.445,-392.333,0,0
198735,452.46,-401.22,0,0
200037,460.904,-402.413,0,0
201339,470.035,-394.173,0,0
202640.35,495.801,-385.298,0,0
203941.975,524.317,-387.258,0,0
205243.6,549.803,-403.76,0,0
206545.225,559.163,-412.603,0,0
207846.85,585.042,-409.42,0,0
209148.475,621.472,-422.705,0,0
210450.1,653.004,-447.005,0,0
211751.725,679.321,-478.578,0,0
213053.35,701.9,-515.134,0,0
214354.975,713.094,-559.673,0,0
215656.6,718.55,-602.155,0,0
216958.225,715.5,-646.018,0,0
218259.85,706.048,-688.336,0,0
219561,689.514,-726.243,0,0
220863,672.893,-763.39,0,0
222165,644.405,-805.989,0,0
223466,597.205,-832.297,0,0
224768,557.294,-836.114,0,0
226070,533.867,-835.36,0,0
227371,517.019,-844.789,0,0
228673,490.663,-855.505,0,0
229974,465.305,-862.679,0,0
231276,436.204,-867.267,0,0
232578,409.159,-865.779,0,0
233879,384.693,-862.824,0,0
235180.95,361.815,-859.658,0,0
236482.575,336.704,-855.271,0,0
237784.2,312.036,-846.915,0,0
239085.825,289.161,-834.103,0,0
240387.45,270.004,-818.62,0,0
241689.075,253.58,-800.375,0,0
242990.7,244.956,-781.19,0,0
244292.325,239.145,-768.3,0,0
245593.95,231.622,-755.175,0,0
246895.575,226.573,-742.165,0,0
248197.2,222.172,-729.495,0,0
249498.825,221.758,-718.63,0,0
250800,219.886,-711.717,0,0
252102,214.881,-705.3,0,0
253404,207.92,-696.178,0,0
254705,202.238,-682.559,0,0
256007,201.052,-666.409,0,0
257309,206.58,-652.093,0,0
258610,214.809,-640.727,0,0
259912,227.301,-632.607,0,0
261213,244.697,-634.362,0,0
262515,252.905,-648.219,0,0
263817,249.757,-661.704,0,0
265118,240.792,-670.748,0,0
266420,226.892,-675.443,0,0
267721.55,212.122,-671.906,0,0
269023.175,201.039,-663.251,0,0
270324.8,194.801,-652.705,0,0
271626.425,192.674,-643.468,0,0
272928.05,190.605,-635.58,0,0
274229.675,190.281,-626.26,0,0
275531.3,193.34,-617.145,0,0
276832.925,200.294,-611.164,0,0
278134.55,208.235,-610.205,0,0
279436.175,214.715,-614.87,0,0
280737.8,215.429,-623.006,0,0
282039.425,210.483,-629.865,0,0
283341,202.659,-633.004,0,0
284643,194.196,-632.777,0,0
285944,186.868,-629.703,0,0
287246,181.145,-625.072,0,0
288548,177.468,-619.767,0,0
289849,176.362,-615.61,0,0
291151,174.603,-613.863,0,0
292452,170.558,-611.731,0,0
293754,167.058,-606.748,0,0
295056,167.339,-601.073,0,0
296357,169.745,-599.397,0,0
297659,170.203,-600.789,0,0
298960.525,168.213,-602.901,0,0
300262.15,163.931,-604.741,0,0
301563.775,157.93,-605.148,0,0
302865.4,151.455,-603.319,0,0
304167.025,145.614,-600.158,0,0
305468.65,140.684,-595.895,0,0
306770.275,136.67,-591.273,0,0
308071.9,133.792,-586.458,0,0
309373.525,132.147,-582.35,0,0
310675.15,130.484,-579.889,0,0
311976.775,127.093,-577.998,0,0
313278.4,122.282,-574.592,0,0
314580,118.17,-568.986,0,0
315882,116.327,-562.394,0,0
317183,116.445,-556.96,0,0
318485,116.985,-552.961,0,0
319787,117.218,-550.059,0,0
321088,117.278,-546.721,0,0
322390,118.64,-544.279,0,0
323691,119.958,-544.272,0,0
324993,119.032,-545.764,0,0
326295,116.002,-546.81,0,0
327596,111.358,-546.575,0,0
328898,106.611,-544.707,0,0
330200,102.471,-542.233,0,0
331501.125,98.1144,-539.375,0,0
332802.75,93.7471,-535.809,0,0
334104.375,89.4019,-531.503,0,0
335406.0,85.3912,-526.389,0,0
336707.625,82.3744,-520.146,0,0
338009.25,80.4597,-514.085,0,0
339310.875,78.8544,-507.995,0,0
340612.5,78.3565,-501.028,0,0
341914.125,79.9936,-494.542,0,0
343215.75,82.8936,-490.3,0,0
344517.375,85.2154,-488.219,0,0
345819.0,85.7928,-486.941,0,0
347121,84.9951,-485.385,0,0
348422,83.6113,-482.565,0,0
349724,82.8478,-478.472,0,0
351025,83.9875,-474.601,0,0
352327,85.5623,-472.507,0,0
353629,86.0576,-471.852,0,0
354930,84.9964,-470.696,0,0
356232,83.4124,-468.966,0,0
357534,81.7185,-465.96,0,0
358835,81.0466,-462.447,0,0
360137,81.1032,-459.531,0,0
361438,80.6823,-457.148,0,0
362740.1,79.9721,-453.908,0,0
364041.725,80.6959,-450.222,0,0
365343.35,82.4535,-448.051,0,0
366644.975,83.4226,-447.645,0,0
367946.6,82.006,-447.675,0,0
369248.225,79.3289,-445.17,0,0
370549.85,78.9355,-441,0,0
371851.475,80.2553,-438.65,0,0
373153.1,80.3048,-438.073,0,0
374454.725,78.6303,-436.735,0,0
375756.35,76.9202,-433.943,0,0
377057.975,76.089,-430.521,0,0
378359.6,76.2112,-426.862,0,0
379661,77.5649,-424.243,0,0
380963,78.1367,-423.023,0,0
382264,77.9678,-421.513,0,0
383566,77.6588,-420.283,0,0
384868,76.4571,-418.789,0,0
386169,75.0851,-416.677,0,0
387471,73.5874,-413.86,0,0
388773,72.51,-410.109,0,0
390074,72.3688,-405.834,0,0
391376,73.6511,-401.582,0,0
392677,75.8629,-398.514,0,0
393979,77.9989,-396.357,0,0
395280.7,80.2492,-394.842,0,0
396582.325,82.2598,-394.386,0,0
397883.95,83.4891,-394.616,0,0
399185.575,83.9137,-395.155,0,0
400006.6,83.5554,-395.566,0,0