File: Accelerated corrosion test data/2025-10-22_18-00-04/sample_7.csv
Frequency (Hz),Impedance (ohms),Phase (Radians),Temperature (C),Humidity (%)
10000.0,273.205,-12092.2,0,0
11301.625,246.385,-10697.3,0,0
12603.25,257.006,-9652.5,0,0
13904.875,208.235,-8754.83,0,0
15206.5,195.608,-8014.45,0,0
16508.125,171.05,-7374.07,0,0
17809.75,167.415,-6818.56,0,0
19111.375,186.368,-6380.12,0,0
20413.0,167.839,-5976.43,0,0
21714.625,156.478,-5641.61,0,0
23016.25,129.441,-5319.13,0,0
24317.875,121.86,-5026.44,0,0
25619.5,117.868,-4761.97,0,0
26921.1,120.957,-4517.02,0,0
28222.7,178.372,-4293.46,0,0
29524.4,140.272,-4180.11,0,0
30826,131.528,-3990.49,0,0
32127.6,117.81,-3842.52,0,0
33429.2,101.071,-3692.21,0,0
34730.9,91.4665,-3546.74,0,0
36032.5,87.6534,-3412.79,0,0
37334.1,85.4194,-3288.81,0,0
38635.7,86.1981,-3171.49,0,0
39937.4,99.6199,-3071.71,0,0
41239,86.6256,-2986.08,0,0
42540.6,79.2729,-2889.66,0,0
43842.225,78.4386,-2800.73,0,0
45143.85,80.034,-2722.44,0,0
46445.475,76.9843,-2649.55,0,0
47747.1,69.9136,-2573.93,0,0
49048.725,67.3215,-2503.42,0,0
50350.35,65.3418,-2436.4,0,0
51651.975,64.1433,-2372.85,0,0
52953.6,63.2896,-2312.33,0,0
54255.225,61.8656,-2255.71,0,0
55556.85,60.3463,-2201.01,0,0
56858.475,59.6323,-2148.55,0,0
58160.1,58.7516,-2098.33,0,0
59461.7,58.7701,-2050.72,0,0
60763.3,58.3916,-2006.92,0,0
62065,56.2781,-1963.3,0,0
63366.6,55.2174,-1920.68,0,0
64668.2,54.335,-1880.02,0,0
65969.8,54.3737,-1841.58,0,0
67271.5,52.6908,-1804.73,0,0
68573.1,51.4971,-1767.95,0,0
69874.7,50.9334,-1732.83,0,0
71176.3,50.7617,-1699.29,0,0
72478,49.6163,-1666.91,0,0
73779.6,48.7781,-1635.03,0,0
75081.2,48.2317,-1604.34,0,0
76382.825,47.7283,-1574.57,0,0
77684.45,47.461,-1545.71,0,0
78986.075,47.2174,-1517.78,0,0
80287.7,46.9609,-1490.87,0,0
81589.325,46.5595,-1464.55,0,0
82890.95,46.3766,-1438.82,0,0
84192.575,46.3633,-1413.76,0,0
85494.2,46.5374,-1389.81,0,0
86795.825,46.4199,-1366.47,0,0
88097.45,46.6133,-1343.76,0,0
89399.075,45.9852,-1321.53,0,0
90700.7,46.0044,-1299.28,0,0
92002.3,46.2924,-1277.41,0,0
93303.9,47.0705,-1255.54,0,0
94605.6,50.5522,-1236.78,0,0
95907.2,48.9638,-1219.13,0,0
97208.8,48.6185,-1199.07,0,0
98510.4,49.1183,-1179.84,0,0
99812.1,48.6222,-1161.17,0,0
101114,50.2806,-1141.93,0,0
102415,52.2025,-1123.41,0,0
103717,54.8146,-1107.02,0,0
105019,55.764,-1092.26,0,0
106320.175,55.2607,-1076.29,0,0
107621.8,55.8079,-1059.68,0,0
108923.425,56.9346,-1043.32,0,0
110225.05,57.5629,-1026.41,0,0
111526.675,60.8104,-1009.41,0,0
112828.3,65.4004,-992.853,0,0
114129.925,70.9805,-978.606,0,0
115431.55,77.9661,-965.915,0,0
116733.175,86.8793,-958.043,0,0
118034.8,90.975,-953.735,0,0
119336.425,93.2299,-953.309,0,0
120638.05,85.421,-952.712,0,0
121939.675,74.1037,-942.24,0,0
123241,67.2437,-929.141,0,0
124543,62.0123,-915.129,0,0
125845,57.5041,-901.024,0,0
127146,53.7158,-885.882,0,0
128448,52.3927,-870.558,0,0
129749,50.9641,-856.377,0,0
131051,49.295,-841.802,0,0
132353,48.405,-826.535,0,0
133654,49.0699,-810.648,0,0
134956,52.3583,-796.049,0,0
136258,56.7152,-783.957,0,0
137559,55.993,-776.436,0,0
138860.775,53.6264,-763.582,0,0
140162.4,53.4052,-749.432,0,0
141464.025,53.1704,-735.873,0,0
142765.65,54.6452,-720.931,0,0
144067.275,57.5654,-707.766,0,0
145368.9,58.9719,-695.703,0,0
146670.525,60.499,-682.508,0,0
147972.15,61.7485,-670.4,0,0
149273.775,61.6534,-657.29,0,0
150575.4,61.5258,-641.837,0,0
151877.025,63.262,-624.205,0,0
153178.65,67.0567,-606.351,0,0
154480,72.5255,-588.108,0,0
155782,80.4187,-569.432,0,0
157084,91.2526,-551.976,0,0
158385,104.478,-538.171,0,0
159687,113.93,-528.993,0,0
160988,117.322,-515.111,0,0
162290,124.454,-491.835,0,0
163592,140.265,-466.621,0,0
164893,162.199,-444.732,0,0
166195,189.454,-418.47,0,0
167497,233.669,-395.366,0,0
168798,294.975,-388.892,0,0
170100,358.317,-410.71,0,0
171401.375,412.448,-460.158,0,0
172703.0,441.769,-533.59,0,0
174004.625,417.956,-615.198,0,0
175306.25,358.144,-640.127,0,0
176607.875,330.39,-629.325,0,0
177909.5,333.099,-624.599,0,0
179211.125,336.711,-661.209,0,0
180512.75,308.089,-686.491,0,0
181814.375,268.991,-700.013,0,0
183116.0,219.698,-695.674,0,0
184417.625,189.665,-670.952,0,0
185719.25,168.695,-648.576,0,0
187021,155.182,-620.498,0,0
188322,151.399,-597.84,0,0
189624,142.408,-579.962,0,0
190926,135.488,-555.588,0,0
192227,135.025,-530.714,0,0
193529,137.519,-504.758,0,0
194831,144.819,-480.989,0,0
196132,155.453,-460.485,0,0
197434,166.896,-442.412,0,0
198735,176.205,-426.416,0,0
200037,185.736,-406.783,0,0
201339,199.462,-384.76,0,0
202640.35,219.069,-361.228,0,0
203941.975,245.493,-340.039,0,0
205243.6,279.529,-321.39,0,0
206545.225,320.969,-317.413,0,0
207846.85,351.376,-317.59,0,0
209148.475,389.193,-309.699,0,0
210450.1,449.146,-314.73,0,0
211751.725,503.606,-358.748,0,0
213053.35,525.877,-411.198,0,0
214354.975,537.59,-457.048,0,0
215656.6,537.96,-502.113,0,0
216958.225,534.16,-546.422,0,0
218259.85,514.157,-591.471,0,0
219561,471.409,-620.452,0,0
220863,433.942,-620.3,0,0
222165,414.157,-609.354,0,0
223466,407.251,-602.238,0,0
224768,402.113,-598.251,0,0
226070,404.384,-591.049,0,0
227371,414.854,-592.814,0,0
228673,427.533,-605.386,0,0
229974,431.554,-626.703,0,0
231276,428.541,-653.234,0,0
232578,418.763,-679.048,0,0
233879,395.097,-710.585,0,0
235180.95,353.747,-724.726,0,0
236482.575,316.75,-719.766,0,0
237784.2,285.278,-706.292,0,0
239085.825,269.682,-682.506,0,0
240387.45,268.024,-670.602,0,0
241689.075,256.198,-668.696,0,0
242990.7,238.902,-654.634,0,0
244292.325,233.226,-633.941,0,0
245593.95,237.93,-623.992,0,0
246895.575,233.701,-618.589,0,0
248197.2,229.01,-608.196,0,0
249498.825,227.583,-594.251,0,0
250800,232.307,-580.523,0,0
252102,242.103,-570.206,0,0
253404,256.598,-567.515,0,0
254705,267.2,-574.17,0,0
256007,269.96,-584.228,0,0
257309,265.421,-591.62,0,0
258610,259.741,-592.513,0,0
259912,256.338,-593.435,0,0
261213,250.821,-591.59,0,0
262515,249.425,-585.73,0,0
263817,254.877,-583.236,0,0
265118,259.089,-587.584,0,0
266420,259.744,-592.994,0,0
267721.55,258.298,-601.408,0,0
269023.175,250.005,-606.497,0,0
270324.8,243.916,-603.928,0,0
271626.425,248.775,-602.194,0,0
272928.05,257.422,-618.261,0,0
274229.675,246.105,-643.936,0,0
275531.3,216.484,-660.805,0,0
276832.925,179.964,-657.243,0,0
278134.55,153.544,-637.1,0,0
279436.175,141.43,-613.422,0,0
280737.8,137.662,-593.497,0,0
282039.425,136.588,-579.962,0,0
283341,133.346,-565.794,0,0
284643,135.324,-549.073,0,0
285944,142.592,-536.792,0,0
287246,149.37,-530.549,0,0
288548,151.866,-526.212,0,0
289849,152.691,-518.823,0,0
291151,156.725,-508.579,0,0
292452,163.659,-500.842,0,0
293754,171.484,-494.125,0,0
295056,180.539,-488.445,0,0
296357,191.798,-484.3,0,0
297659,205.184,-482.183,0,0
298960.525,220.061,-484.226,0,0
300262.15,236.867,-489.66,0,0
301563.775,255.693,-503.199,0,0
302865.4,269.2,-530.149,0,0
304167.025,265.553,-561.729,0,0
305468.65,250.592,-586.492,0,0
306770.275,228.246,-603.075,0,0
308071.9,204.877,-610.241,0,0
309373.525,182.058,-609.96,0,0
310675.15,164.672,-603.356,0,0
311976.775,151.955,-596.758,0,0
313278.4,140.225,-590.09,0,0
314580,129.951,-581.309,0,0
315882,122.998,-571.284,0,0
317183,119.088,-562.561,0,0
318485,116.151,-555.089,0,0
319787,114.18,-548.612,0,0
321088,112.657,-543.336,0,0
322390,111.07,-538.837,0,0
323691,109.355,-535.001,0,0
324993,107.406,-531.056,0,0
326295,106.344,-527.268,0,0
327596,105.376,-525.145,0,0
328898,103.062,-523.731,0,0
330200,99.8689,-521.994,0,0
331501.125,96.1688,-520.283,0,0
332802.75,91.2211,-518.103,0,0
334104.375,85.7903,-514.448,0,0
335406.0,80.7507,-509.784,0,0
336707.625,76.0774,-504.192,0,0
338009.25,72.2123,-497.875,0,0
339310.875,69.1889,-491.348,0,0
340612.5,66.7624,-484.708,0,0
341914.125,64.9424,-477.657,0,0
343215.75,64.2569,-470.569,0,0
344517.375,64.7158,-463.991,0,0
345819.0,65.9296,-458.695,0,0
347121,66.4618,-454.821,0,0
348422,65.6395,-450.935,0,0
349724,64.4599,-445.86,0,0
351025,63.7599,-440.201,0,0
352327,64.3208,-433.664,0,0
353629,66.2033,-427.95,0,0
354930,68.7177,-423.376,0,0
356232,71.1591,-420.494,0,0
357534,71.7066,-418.628,0,0
358835,70.5399,-415.369,0,0
360137,69.8537,-410.126,0,0
361438,70.6411,-404.137,0,0
362740.1,72.7556,-398.576,0,0
364041.725,75.5629,-393.551,0,0
365343.35,79.3126,-389.283,0,0
366644.975,83.024,-386.564,0,0
367946.6,86.435,-384.223,0,0
369248.225,89.6822,-382.76,0,0
370549.85,92.1358,-382.529,0,0
371851.475,92.2185,-382.135,0,0
373153.1,92.0356,-379.456,0,0
374454.725,93.2723,-376.024,0,0
375756.35,95.3142,-373.453,0,0
377057.975,96.6916,-371.561,0,0
378359.6,97.5879,-368.715,0,0
379661,99.4987,-365.46,0,0
380963,101.562,-362.628,0,0
382264,103.994,-359.67,0,0
383566,106.821,-357.053,0,0
384868,109.679,-354.673,0,0
386169,112.62,-352.63,0,0
387471,115.085,-350.55,0,0
388773,117.972,-346.96,0,0
390074,123.115,-343.974,0,0
391376,128.711,-342.398,0,0
392677,134.087,-342.12,0,0
393979,138.436,-342.02,0,0
395280.7,143.336,-340.651,0,0
396582.325,150.339,-339.305,0,0
397883.95,160.224,-339.474,0,0
399185.575,172.625,-344.429,0,0
400006.6,179.786,-351.473,0,0