File: Accelerated corrosion test data/2025-10-15_15-08-31/sample_2.csv
Frequency (Hz),Impedance (ohms),Phase (Radians),Temperature (C),Humidity (%)
10000.0,231.241,-11421.1,0,0
11301.625,205.007,-10115.4,0,0
12603.25,184.655,-9081.27,0,0
13904.875,187.385,-8235.48,0,0
15206.5,164.414,-7545.83,0,0
16508.125,143.62,-6952.21,0,0
17809.75,133.348,-6445.12,0,0
19111.375,128.698,-6005.73,0,0
20413.0,118.496,-5622.87,0,0
21714.625,127.105,-5294.06,0,0
23016.25,112.562,-4997.84,0,0
24317.875,102.392,-4732.16,0,0
25619.5,97.7578,-4488.84,0,0
26921.1,95.232,-4271.06,0,0
28222.7,89.9234,-4071.94,0,0
29524.4,93.2484,-3888.14,0,0
30826,87.9272,-3733.7,0,0
32127.6,81.9516,-3580.05,0,0
33429.2,79.7563,-3441.64,0,0
34730.9,75.4639,-3310.75,0,0
36032.5,72.7487,-3189.64,0,0
37334.1,70.9022,-3076.1,0,0
38635.7,68.6581,-2970.97,0,0
39937.4,66.7974,-2872.37,0,0
41239,65.3877,-2779.65,0,0
42540.6,64.2546,-2693.22,0,0
43842.225,62.8917,-2611.03,0,0
45143.85,61.9444,-2533.3,0,0
46445.475,61.1869,-2461.28,0,0
47747.1,60.2201,-2391.78,0,0
49048.725,60.5515,-2327.72,0,0
50350.35,57.7425,-2265.9,0,0
51651.975,56.6389,-2206.62,0,0
52953.6,54.9459,-2149.42,0,0
54255.225,54.2455,-2094.87,0,0
55556.85,53.8239,-2042.73,0,0
56858.475,53.6971,-1993.17,0,0
58160.1,54.0602,-1945.76,0,0
59461.7,54.4909,-1899.93,0,0
60763.3,56.3222,-1857.49,0,0
62065,58.7554,-1819.2,0,0
63366.6,55.3549,-1782.53,0,0
64668.2,52.7778,-1744.11,0,0
65969.8,50.713,-1705.15,0,0
67271.5,51.3066,-1667.75,0,0
68573.1,53.3416,-1633.95,0,0
69874.7,55.8517,-1603.82,0,0
71176.3,52.3931,-1575.54,0,0
72478,47.757,-1544.99,0,0
73779.6,45.1577,-1512.17,0,0
75081.2,45.2544,-1479.84,0,0
76382.825,47.0136,-1449.47,0,0
77684.45,49.7716,-1421.26,0,0
78986.075,53.0435,-1397.05,0,0
80287.7,51.7666,-1375.47,0,0
81589.325,49.1653,-1350.42,0,0
82890.95,48.0826,-1324.76,0,0
84192.575,48.8165,-1299.94,0,0
85494.2,49.5352,-1276.46,0,0
86795.825,50.6246,-1254.45,0,0
88097.45,51.1518,-1233.25,0,0
89399.075,51.3965,-1211.73,0,0
90700.7,51.4729,-1191.69,0,0
92002.3,52.9952,-1170.43,0,0
93303.9,55.3585,-1151.51,0,0
94605.6,55.3464,-1134.97,0,0
95907.2,54.4475,-1115.63,0,0
97208.8,58.0867,-1098.54,0,0
98510.4,57.6652,-1084.97,0,0
99812.1,53.3243,-1070.09,0,0
101114,50.4742,-1052.52,0,0
102415,46.8647,-1032.32,0,0
103717,46.0686,-1011.23,0,0
105019,49.4109,-991,0,0
106320.175,54.097,-974.021,0,0
107621.8,57.6296,-962.137,0,0
108923.425,55.9341,-949.893,0,0
110225.05,52.7655,-934.567,0,0
111526.675,51.8026,-916.68,0,0
112828.3,52.2295,-899.231,0,0
114129.925,53.9125,-882.069,0,0
115431.55,56.8492,-865.601,0,0
116733.175,60.4172,-850.414,0,0
118034.8,64.4506,-836.535,0,0
119336.425,67.9583,-824.777,0,0
120638.05,69.9045,-814.286,0,0
121939.675,69.2936,-803.095,0,0
123241,68.3802,-790.061,0,0
124543,67.7961,-776.186,0,0
125845,68.0663,-761.188,0,0
127146,69.6524,-746.066,0,0
128448,72.5702,-731.836,0,0
129749,75.1609,-718.895,0,0
131051,77.6204,-705.834,0,0
132353,78.9908,-693.502,0,0
133654,80.2889,-679.525,0,0
134956,81.7217,-665.351,0,0
136258,84.1865,-650.207,0,0
137559,87.2831,-635.12,0,0
138860.775,90.6453,-620.085,0,0
140162.4,93.9198,-603.853,0,0
141464.025,99.7959,-584.896,0,0
142765.65,109.565,-567.501,0,0
144067.275,120.191,-552.133,0,0
145368.9,131.906,-536.919,0,0
146670.525,145.665,-522.961,0,0
147972.15,161.799,-509.719,0,0
149273.775,182.767,-498.056,0,0
150575.4,209.575,-496.176,0,0
151877.025,229.907,-508.378,0,0
153178.65,236.321,-523.33,0,0
154480,233.111,-533.199,0,0
155782,228.443,-534.835,0,0
157084,222.563,-533.125,0,0
158385,219.129,-524.814,0,0
159687,220.956,-517.844,0,0
160988,221.97,-512.007,0,0
162290,229.703,-508.171,0,0
163592,225.363,-514.784,0,0
164893,211.861,-511.124,0,0
166195,199.132,-496.897,0,0
167497,192.443,-477.456,0,0
168798,190.404,-455.091,0,0
170100,192.636,-432.58,0,0
171401.375,197.47,-409.973,0,0
172703.0,206.816,-385.936,0,0
174004.625,219.742,-361.741,0,0
175306.25,239.975,-337.392,0,0
176607.875,266.816,-321.092,0,0
177909.5,294.668,-310.99,0,0
179211.125,316.73,-312.7,0,0
180512.75,324.95,-311.764,0,0
181814.375,330.948,-295.395,0,0
183116.0,347.877,-274.892,0,0
184417.625,373.194,-251.4,0,0
185719.25,408.842,-233.262,0,0
187021,447.235,-222.157,0,0
188322,490.21,-214.777,0,0
189624,531.354,-214.215,0,0
190926,577.789,-210.262,0,0
192227,638.294,-211.188,0,0
193529,711.708,-231.099,0,0
194831,778.965,-281.295,0,0
196132,827.616,-344.521,0,0
197434,864.469,-411.611,0,0
198735,893.272,-492.634,0,0
200037,896.776,-576.477,0,0
201339,885.526,-664.592,0,0
202640.35,846.469,-741.086,0,0
203941.975,793.229,-799.219,0,0
205243.6,739.24,-843.086,0,0
206545.225,675.703,-866.283,0,0
207846.85,625.292,-871.532,0,0
209148.475,590.519,-875.318,0,0
210450.1,552.741,-887.185,0,0
211751.725,507.767,-889.224,0,0
213053.35,470.198,-877.769,0,0
214354.975,441.08,-864.045,0,0
215656.6,417.581,-850.1,0,0
216958.225,399.091,-834.722,0,0
218259.85,385.636,-820.385,0,0
219561,376.087,-806.754,0,0
220863,370.163,-796.232,0,0
222165,367.643,-787.362,0,0
223466,367.123,-784.868,0,0
224768,363.444,-785.011,0,0
226070,358.283,-784.754,0,0
227371,356.172,-786.103,0,0
228673,353.186,-793.082,0,0
229974,343.741,-803.828,0,0
231276,328.135,-811.636,0,0
232578,310.67,-815.784,0,0
233879,291.869,-816.41,0,0
235180.95,273.655,-813.983,0,0
236482.575,256.301,-809.71,0,0
237784.2,239.181,-803.372,0,0
239085.825,223.678,-794.654,0,0
240387.45,210.104,-784.706,0,0
241689.075,198.553,-774.507,0,0
242990.7,188.718,-763.957,0,0
244292.325,180.157,-754.981,0,0
245593.95,171.319,-746.968,0,0
246895.575,160.322,-739.489,0,0
248197.2,147.894,-728.042,0,0
249498.825,137.815,-714.007,0,0
250800,129.737,-698.335,0,0
252102,124.959,-681.317,0,0
253404,123.161,-665.433,0,0
254705,122.686,-650.239,0,0
256007,124.226,-634.632,0,0
257309,129.278,-620.687,0,0
258610,135.443,-609.242,0,0
259912,142.633,-599.08,0,0
261213,151.593,-591.529,0,0
262515,160.652,-586.997,0,0
263817,169.009,-585.499,0,0
265118,175.389,-586.357,0,0
266420,178.802,-587.954,0,0
267721.55,180.574,-588.97,0,0
269023.175,180.636,-589.03,0,0
270324.8,180.499,-586.123,0,0
271626.425,183.707,-581.354,0,0
272928.05,190.526,-577.902,0,0
274229.675,201.353,-578.226,0,0
275531.3,213.779,-587.355,0,0
276832.925,217.261,-605.67,0,0
278134.55,209.46,-621.067,0,0
279436.175,197.817,-630.779,0,0
280737.8,184.523,-636.019,0,0
282039.425,171.639,-638.144,0,0
283341,156.713,-636.871,0,0
284643,145.706,-631.254,0,0
285944,133.26,-626.882,0,0
287246,120.009,-615.188,0,0
288548,113.164,-598.091,0,0
289849,115.927,-579.207,0,0
291151,128.199,-567.027,0,0
292452,143.391,-567.31,0,0
293754,148.25,-577.37,0,0
295056,144.243,-581.292,0,0
296357,145.585,-581.146,0,0
297659,145.575,-590.298,0,0
298960.525,136.396,-595.954,0,0
300262.15,126.725,-596.452,0,0
301563.775,118.588,-592.958,0,0
302865.4,114.683,-589.679,0,0
304167.025,110.355,-589.546,0,0
305468.65,102.993,-589.276,0,0
306770.275,94.4475,-586.302,0,0
308071.9,86.723,-580.994,0,0
309373.525,80.6944,-574.543,0,0
310675.15,76.0011,-568.178,0,0
311976.775,71.856,-561.761,0,0
313278.4,68.4701,-555.103,0,0
314580,65.9002,-548.69,0,0
315882,63.7763,-542.492,0,0
317183,62.0453,-536.293,0,0
318485,61.0246,-530.431,0,0
319787,60.0311,-525.099,0,0
321088,59.0659,-519.989,0,0
322390,58.006,-514.791,0,0
323691,56.963,-509.077,0,0
324993,56.7681,-502.445,0,0
326295,58.8922,-496.127,0,0
327596,62.1821,-492.323,0,0
328898,64.1958,-490.24,0,0
330200,65.5186,-488.525,0,0
331501.125,66.1794,-487.679,0,0
332802.75,65.2549,-487.268,0,0
334104.375,62.8611,-485.788,0,0
335406.0,60.4075,-482.852,0,0
336707.625,58.4874,-479.453,0,0
338009.25,56.8694,-475.472,0,0
339310.875,55.6869,-471.251,0,0
340612.5,54.9263,-466.898,0,0
341914.125,54.7385,-462.467,0,0
343215.75,54.8592,-458.201,0,0
344517.375,55.351,-453.989,0,0
345819.0,56.3422,-450.04,0,0
347121,57.5756,-446.477,0,0
348422,58.9736,-443.258,0,0
349724,60.5552,-440.418,0,0
351025,62.2071,-438.093,0,0
352327,63.5896,-436.316,0,0
353629,64.5145,-434.56,0,0
354930,65.5549,-432.615,0,0
356232,66.6975,-430.864,0,0
357534,68.0861,-429.233,0,0
358835,69.7079,-428.409,0,0
360137,70.8701,-428.379,0,0
361438,71.194,-428.685,0,0
362740.1,70.6891,-428.899,0,0
364041.725,69.6482,-428.729,0,0
365343.35,68.2938,-428.095,0,0
366644.975,66.7709,-426.863,0,0
367946.6,65.7637,-424.886,0,0
369248.225,65.706,-423.44,0,0
370549.85,65.0554,-422.921,0,0
371851.475,63.6886,-422.01,0,0
373153.1,62.4022,-420.647,0,0
374454.725,61.2385,-419.413,0,0
375756.35,59.7614,-418.197,0,0
377057.975,58.224,-416.558,0,0
378359.6,56.8564,-415.279,0,0
379661,54.1239,-413.914,0,0
380963,51.7623,-410.113,0,0
382264,51.8848,-407.207,0,0
383566,50.9224,-405.8,0,0
384868,49.0218,-403.807,0,0
386169,47.1059,-401.05,0,0
387471,45.6742,-397.718,0,0
388773,44.7301,-394.229,0,0
390074,44.4656,-390.781,0,0
391376,44.7358,-388.064,0,0
392677,44.3316,-386.263,0,0
393979,42.8602,-383.957,0,0
395280.7,41.3561,-380.58,0,0
396582.325,40.6132,-376.588,0,0
397883.95,40.5984,-372.652,0,0
399185.575,41.0879,-368.989,0,0
400006.6,41.4945,-366.903,0,0