File: Accelerated corrosion test data/2025-10-09_18-00-04/sample_3.csv
Frequency (Hz),Impedance (ohms),Phase (Radians),Temperature (C),Humidity (%)
10000.0,251.23,-11781.6,0,0
11301.625,223.591,-10436,0,0
12603.25,202.598,-9366.15,0,0
13904.875,185.079,-8494.81,0,0
15206.5,172.49,-7764.65,0,0
16508.125,161.206,-7169.97,0,0
17809.75,156.722,-6641.47,0,0
19111.375,146.138,-6190.41,0,0
20413.0,157.735,-5790.19,0,0
21714.625,137.918,-5469.44,0,0
23016.25,128.002,-5164.12,0,0
24317.875,118.228,-4884.91,0,0
25619.5,113.543,-4638.11,0,0
26921.1,108.205,-4407.93,0,0
28222.7,102.981,-4201.41,0,0
29524.4,108.875,-4024.29,0,0
30826,100.592,-3852.7,0,0
32127.6,101.225,-3688.29,0,0
33429.2,99.237,-3563.33,0,0
34730.9,87.8269,-3426.15,0,0
36032.5,83.035,-3298.34,0,0
37334.1,80.0253,-3180.73,0,0
38635.7,77.9305,-3070.77,0,0
39937.4,75.4419,-2968.3,0,0
41239,74.084,-2871.38,0,0
42540.6,72.8766,-2781.55,0,0
43842.225,71.5664,-2696.25,0,0
45143.85,70.7467,-2616.52,0,0
46445.475,69.6888,-2541.12,0,0
47747.1,69.8801,-2468.45,0,0
49048.725,68.4146,-2403.21,0,0
50350.35,66.4938,-2338.06,0,0
51651.975,65.9322,-2275.41,0,0
52953.6,66.3127,-2215.68,0,0
54255.225,69.1831,-2160.93,0,0
55556.85,66.4989,-2113.59,0,0
56858.475,61.6396,-2060.66,0,0
58160.1,60.9988,-2008.81,0,0
59461.7,61.4163,-1959.63,0,0
60763.3,62.8062,-1912.98,0,0
62065,64.8832,-1868.35,0,0
63366.6,68.4961,-1824.77,0,0
64668.2,77.4162,-1782.93,0,0
65969.8,91.6908,-1757.83,0,0
67271.5,75.957,-1732.35,0,0
68573.1,76.0861,-1694.95,0,0
69874.7,75.6443,-1665.76,0,0
71176.3,70.4887,-1635.36,0,0
72478,69.065,-1602.57,0,0
73779.6,67.4543,-1574.22,0,0
75081.2,63.9773,-1546.02,0,0
76382.825,60.3711,-1516.71,0,0
77684.45,57.9331,-1487.84,0,0
78986.075,55.7821,-1459.37,0,0
80287.7,54.222,-1431.37,0,0
81589.325,53.213,-1404.2,0,0
82890.95,52.6966,-1377.75,0,0
84192.575,52.3911,-1352.11,0,0
85494.2,52.3713,-1327.1,0,0
86795.825,52.5243,-1302.83,0,0
88097.45,53.0472,-1278.83,0,0
89399.075,54.3812,-1255.25,0,0
90700.7,56.7576,-1233.46,0,0
92002.3,59.1464,-1212.7,0,0
93303.9,62.3197,-1194.05,0,0
94605.6,63.2397,-1179.52,0,0
95907.2,57.9822,-1161.97,0,0
97208.8,56.6606,-1140.89,0,0
98510.4,56.4587,-1121.48,0,0
99812.1,55.8,-1102.65,0,0
101114,55.3421,-1082.89,0,0
102415,56.5257,-1062.47,0,0
103717,60.4295,-1044.73,0,0
105019,63.7303,-1030.7,0,0
106320.175,62.9746,-1017.05,0,0
107621.8,60.4632,-1001.38,0,0
108923.425,58.6637,-983.729,0,0
110225.05,58.8411,-965.131,0,0
111526.675,61.1467,-947.294,0,0
112828.3,63.3427,-931.311,0,0
114129.925,64.9108,-915.338,0,0
115431.55,67.0644,-898.484,0,0
116733.175,70.8773,-882.002,0,0
118034.8,76.6359,-866.274,0,0
119336.425,83.2143,-854.564,0,0
120638.05,89.0906,-848.147,0,0
121939.675,86.4435,-839.865,0,0
123241,86.7505,-826.701,0,0
124543,88.2226,-815.44,0,0
125845,89.3693,-805.117,0,0
127146,88.6795,-795.347,0,0
128448,86.8962,-784.462,0,0
129749,85.2653,-771.308,0,0
131051,86.3373,-758.221,0,0
132353,85.8687,-747.157,0,0
133654,85.2694,-735.205,0,0
134956,83.7048,-722.72,0,0
136258,82.3472,-709.191,0,0
137559,82.2201,-694.014,0,0
138860.775,83.5605,-680.606,0,0
140162.4,82.6422,-667.079,0,0
141464.025,82.4754,-652.828,0,0
142765.65,81.8651,-636.958,0,0
144067.275,82.1893,-619.811,0,0
145368.9,83.8465,-601.826,0,0
146670.525,86.567,-583.059,0,0
147972.15,90.8944,-563.143,0,0
149273.775,97.4684,-543.017,0,0
150575.4,107.937,-522.59,0,0
151877.025,120.652,-506.008,0,0
153178.65,133.372,-492.303,0,0
154480,143.391,-480.351,0,0
155782,151.574,-464.301,0,0
157084,163.097,-446.829,0,0
158385,179.763,-434.869,0,0
159687,184.835,-420.774,0,0
160988,200.582,-392.188,0,0
162290,226.485,-367.156,0,0
163592,263.173,-347.367,0,0
164893,311.004,-336.319,0,0
166195,363.62,-349.503,0,0
167497,402.272,-383.368,0,0
168798,422.608,-420.309,0,0
170100,421.891,-461.39,0,0
171401.375,406.283,-477.642,0,0
172703.0,400.559,-480.472,0,0
174004.625,408.604,-487.89,0,0
175306.25,412.834,-505.627,0,0
176607.875,406.523,-524.199,0,0
177909.5,385.822,-539.731,0,0
179211.125,363.177,-532.741,0,0
180512.75,358.403,-519.483,0,0
181814.375,362.428,-515.427,0,0
183116.0,355.55,-521.318,0,0
184417.625,341.221,-518.452,0,0
185719.25,328.047,-505.532,0,0
187021,322.949,-482.617,0,0
188322,329.737,-463.474,0,0
189624,335.385,-449.711,0,0
190926,345.248,-435.8,0,0
192227,354.586,-422.421,0,0
193529,365.63,-404.789,0,0
194831,388.907,-386.443,0,0
196132,422.41,-382.729,0,0
197434,444.049,-395.768,0,0
198735,456.81,-401.534,0,0
200037,467.925,-405.44,0,0
201339,472.942,-402.542,0,0
202640.35,491.022,-392.885,0,0
203941.975,520.549,-391.428,0,0
205243.6,549.57,-403.158,0,0
206545.225,563.941,-421.245,0,0
207846.85,580.497,-421.514,0,0
209148.475,611.891,-429.864,0,0
210450.1,644.178,-451.425,0,0
211751.725,671.128,-482.631,0,0
213053.35,691.789,-517.848,0,0
214354.975,706.166,-559.423,0,0
215656.6,714.842,-604.146,0,0
216958.225,711.468,-652.911,0,0
218259.85,697.381,-695.312,0,0
219561,678.432,-732.406,0,0
220863,658.646,-770.252,0,0
222165,628.128,-806.707,0,0
223466,584.343,-833.176,0,0
224768,541.537,-835.384,0,0
226070,519.53,-831.054,0,0
227371,504.198,-840.147,0,0
228673,479.845,-853.46,0,0
229974,450.622,-859.963,0,0
231276,422.289,-861.695,0,0
232578,396.337,-859.858,0,0
233879,372.138,-856.436,0,0
235180.95,349.14,-852.158,0,0
236482.575,324.858,-847.134,0,0
237784.2,300.674,-838.365,0,0
239085.825,276.909,-824.265,0,0
240387.45,259.347,-806.086,0,0
241689.075,245.948,-788.342,0,0
242990.7,237.925,-770.328,0,0
244292.325,232.849,-755.583,0,0
245593.95,228.444,-743.866,0,0
246895.575,223.146,-732.576,0,0
248197.2,219.056,-720.913,0,0
249498.825,218.054,-710.168,0,0
250800,216.48,-704.111,0,0
252102,210.277,-698.311,0,0
253404,202.049,-687.975,0,0
254705,197.195,-672.786,0,0
256007,197.685,-655.943,0,0
257309,205.423,-641.818,0,0
258610,214.206,-633.566,0,0
259912,225.28,-626.092,0,0
261213,240.13,-626.91,0,0
262515,250.292,-638.824,0,0
263817,248.788,-652.979,0,0
265118,238.967,-663.761,0,0
266420,224.571,-666.953,0,0
267721.55,210.713,-662.56,0,0
269023.175,201.582,-653.564,0,0
270324.8,196.487,-644.642,0,0
271626.425,194.53,-635.279,0,0
272928.05,194.678,-628.581,0,0
274229.675,193.951,-621.195,0,0
275531.3,197.249,-613.04,0,0
276832.925,204.882,-608.698,0,0
278134.55,212.437,-611.112,0,0
279436.175,215.644,-618.086,0,0
280737.8,212.871,-625.858,0,0
282039.425,206.125,-631.011,0,0
283341,197.169,-632.706,0,0
284643,188.12,-631.062,0,0
285944,179.999,-626.456,0,0
287246,174.535,-619.446,0,0
288548,173.246,-612.663,0,0
289849,173.049,-609.141,0,0
291151,171.838,-606.733,0,0
292452,168.995,-604.166,0,0
293754,167.511,-599.102,0,0
295056,169.499,-595.306,0,0
296357,172.241,-595.676,0,0
297659,172.219,-598.888,0,0
298960.525,168.599,-602.217,0,0
300262.15,163.084,-603.874,0,0
301563.775,156.566,-603.987,0,0
302865.4,149.724,-602.105,0,0
304167.025,143.549,-598.923,0,0
305468.65,138.054,-594.575,0,0
306770.275,133.877,-589.315,0,0
308071.9,131.536,-584.519,0,0
309373.525,129.613,-581.223,0,0
310675.15,126.747,-578.766,0,0
311976.775,122.742,-575.948,0,0
313278.4,118.088,-571.527,0,0
314580,114.502,-565.403,0,0
315882,113.341,-558.512,0,0
317183,114.283,-553.28,0,0
318485,115.047,-550.232,0,0
319787,114.919,-547.591,0,0
321088,114.747,-544.847,0,0
322390,115.621,-542.562,0,0
323691,116.115,-542.583,0,0
324993,114.683,-543.291,0,0
326295,111.546,-543.75,0,0
327596,107.266,-543.017,0,0
328898,102.863,-541.067,0,0
330200,98.7502,-538.381,0,0
331501.125,94.6535,-535.47,0,0
332802.75,90.2718,-531.888,0,0
334104.375,85.9007,-527.479,0,0
335406.0,82.2146,-521.952,0,0
336707.625,79.5059,-515.84,0,0
338009.25,77.6657,-509.764,0,0
339310.875,76.4602,-503.322,0,0
340612.5,76.6509,-496.58,0,0
341914.125,78.5909,-490.878,0,0
343215.75,81.2096,-487.181,0,0
344517.375,82.9415,-485.115,0,0
345819.0,83.1474,-483.583,0,0
347121,82.6721,-481.346,0,0
348422,82.0296,-478.609,0,0
349724,81.5928,-475.285,0,0
351025,82.3996,-471.713,0,0
352327,84.0955,-469.867,0,0
353629,84.296,-469.602,0,0
354930,82.6406,-468.626,0,0
356232,80.9195,-466.49,0,0
357534,79.2425,-463.755,0,0
358835,78.0482,-460.177,0,0
360137,77.8652,-456.637,0,0
361438,77.9104,-453.832,0,0
362740.1,77.8022,-450.91,0,0
364041.725,78.3717,-447.597,0,0
365343.35,79.9662,-445.731,0,0
366644.975,80.2318,-445.578,0,0
367946.6,78.4413,-444.957,0,0
369248.225,75.8362,-442.101,0,0
370549.85,75.4951,-437.492,0,0
371851.475,77.3236,-434.867,0,0
373153.1,77.6911,-434.615,0,0
374454.725,75.908,-433.466,0,0
375756.35,74.075,-430.76,0,0
377057.975,73.2577,-426.996,0,0
378359.6,73.652,-423.555,0,0
379661,74.6334,-420.816,0,0
380963,75.441,-419.127,0,0
382264,75.6074,-417.737,0,0
383566,75.4427,-416.464,0,0
384868,74.5653,-415.119,0,0
386169,73.3169,-413.097,0,0
387471,72.1808,-410.531,0,0
388773,71.0801,-407.381,0,0
390074,70.6039,-403.579,0,0
391376,71.1704,-399.507,0,0
392677,72.937,-395.857,0,0
393979,75.3929,-393.33,0,0
395280.7,77.8141,-392.066,0,0
396582.325,79.7475,-391.687,0,0
397883.95,80.8727,-392.093,0,0
399185.575,80.6721,-392.63,0,0
400006.6,80.0937,-392.685,0,0