File: Accelerated corrosion test data/2025-10-09_18-00-04/sample_1.csv
Frequency (Hz),Impedance (ohms),Phase (Radians),Temperature (C),Humidity (%)
10000.0,239.836,-12180.4,0,0
11301.625,213.69,-10788.3,0,0
12603.25,194.61,-9691.23,0,0
13904.875,181.622,-8769.62,0,0
15206.5,182.927,-8037.96,0,0
16508.125,155.387,-7414.41,0,0
17809.75,145.585,-6880.85,0,0
19111.375,135.291,-6412.02,0,0
20413.0,155.563,-5970.75,0,0
21714.625,138.416,-5655.8,0,0
23016.25,122.693,-5352.39,0,0
24317.875,112.429,-5059.58,0,0
25619.5,105.261,-4795.99,0,0
26921.1,113.809,-4548.65,0,0
28222.7,110.504,-4343.96,0,0
29524.4,106.984,-4177.99,0,0
30826,100.759,-3991.8,0,0
32127.6,97.9795,-3833.05,0,0
33429.2,88.4587,-3690.86,0,0
34730.9,81.7622,-3548.73,0,0
36032.5,77.7571,-3417.92,0,0
37334.1,75.3308,-3296.24,0,0
38635.7,72.9814,-3182.75,0,0
39937.4,71.0985,-3076.19,0,0
41239,72.0925,-2977.6,0,0
42540.6,70.9527,-2885.32,0,0
43842.225,67.9305,-2798.89,0,0
45143.85,68.3461,-2717.33,0,0
46445.475,65.5075,-2641.28,0,0
47747.1,63.8413,-2567.47,0,0
49048.725,61.6238,-2497.56,0,0
50350.35,59.6657,-2431.26,0,0
51651.975,58.7475,-2367.69,0,0
52953.6,57.8005,-2306.85,0,0
54255.225,56.8172,-2250.05,0,0
55556.85,56.0833,-2194.8,0,0
56858.475,54.9996,-2141.93,0,0
58160.1,54.8079,-2091.3,0,0
59461.7,54.4088,-2043.38,0,0
60763.3,54.5806,-1997.54,0,0
62065,53.179,-1953.7,0,0
63366.6,52.5685,-1910.29,0,0
64668.2,53.0736,-1868.04,0,0
65969.8,55.1587,-1830.49,0,0
67271.5,53.7474,-1793.95,0,0
68573.1,53.4484,-1758.6,0,0
69874.7,52.118,-1724.76,0,0
71176.3,50.4554,-1690.11,0,0
72478,48.561,-1656.49,0,0
73779.6,48.2324,-1623.11,0,0
75081.2,48.6269,-1590.95,0,0
76382.825,49.3724,-1560.03,0,0
77684.45,50.3779,-1530.68,0,0
78986.075,51.8867,-1503.09,0,0
80287.7,51.228,-1476.78,0,0
81589.325,50.8067,-1448.85,0,0
82890.95,51.3393,-1422.07,0,0
84192.575,52.9053,-1396.01,0,0
85494.2,55.2007,-1371.45,0,0
86795.825,56.2416,-1348.3,0,0
88097.45,56.3975,-1325.16,0,0
89399.075,58.0842,-1300.64,0,0
90700.7,61.6556,-1277.3,0,0
92002.3,67.998,-1256.42,0,0
93303.9,75.2776,-1239.67,0,0
94605.6,73.5011,-1232.31,0,0
95907.2,66.9178,-1213.83,0,0
97208.8,64.5392,-1193.13,0,0
98510.4,64.3519,-1172.6,0,0
99812.1,63.2282,-1152.71,0,0
101114,63.544,-1132.88,0,0
102415,63.2654,-1111.41,0,0
103717,68.3003,-1090.11,0,0
105019,75.1623,-1072.72,0,0
106320.175,81.6187,-1056.62,0,0
107621.8,88.1612,-1044.35,0,0
108923.425,92.6136,-1033.78,0,0
110225.05,93.9905,-1025.65,0,0
111526.675,94.0647,-1013.33,0,0
112828.3,95.9028,-1003.69,0,0
114129.925,94.7558,-995.806,0,0
115431.55,90.9294,-986.003,0,0
116733.175,86.0689,-973.319,0,0
118034.8,82.2406,-958.468,0,0
119336.425,80.9411,-942.946,0,0
120638.05,81.6629,-928.825,0,0
121939.675,80.5999,-916.356,0,0
123241,79.1617,-902.116,0,0
124543,78.9385,-887.046,0,0
125845,79.7784,-872.425,0,0
127146,81.0378,-858.179,0,0
128448,83.088,-843.713,0,0
129749,85.6116,-829.472,0,0
131051,90.8008,-816.628,0,0
132353,94.7251,-806.371,0,0
133654,97.5735,-795.906,0,0
134956,99.7993,-785.585,0,0
136258,102.74,-774.355,0,0
137559,107.367,-764.671,0,0
138860.775,109.536,-758.46,0,0
140162.4,109.383,-749.83,0,0
141464.025,109.329,-739.554,0,0
142765.65,110.174,-728.685,0,0
144067.275,111.455,-717.41,0,0
145368.9,113.95,-706.412,0,0
146670.525,116.418,-696.01,0,0
147972.15,118.738,-686.739,0,0
149273.775,121.421,-676.417,0,0
150575.4,122.45,-668.251,0,0
151877.025,121.687,-656.367,0,0
153178.65,121.927,-641.527,0,0
154480,126.013,-625.172,0,0
155782,133.868,-608.544,0,0
157084,145.588,-593.971,0,0
158385,158.213,-584.603,0,0
159687,168.668,-573.885,0,0
160988,186.738,-563.812,0,0
162290,204.754,-564.602,0,0
163592,217.212,-565.959,0,0
164893,228.866,-568.7,0,0
166195,241.619,-575.715,0,0
167497,246.63,-588.223,0,0
168798,243.086,-599.392,0,0
170100,234.071,-604.158,0,0
171401.375,226.829,-601.596,0,0
172703.0,221.281,-597.233,0,0
174004.625,217.923,-591.228,0,0
175306.25,217.105,-584.979,0,0
176607.875,218.003,-581.794,0,0
177909.5,216.73,-578.947,0,0
179211.125,212.429,-576.792,0,0
180512.75,206.597,-573.274,0,0
181814.375,199.085,-565.151,0,0
183116.0,192.557,-555.229,0,0
184417.625,186.857,-540.641,0,0
185719.25,186.003,-523.878,0,0
187021,188.217,-508.57,0,0
188322,191.577,-494.286,0,0
189624,194.715,-479.303,0,0
190926,200.06,-463.715,0,0
192227,206.385,-447.29,0,0
193529,215.455,-430.846,0,0
194831,225.584,-414.204,0,0
196132,238.39,-396.57,0,0
197434,255.195,-378.445,0,0
198735,276.323,-362.481,0,0
200037,297.535,-348.582,0,0
201339,323.946,-331.575,0,0
202640.35,360.6,-317.643,0,0
203941.975,403.766,-312.488,0,0
205243.6,455.701,-322.186,0,0
206545.225,498.278,-351.282,0,0
207846.85,526.731,-391.143,0,0
209148.475,538.771,-430.645,0,0
210450.1,536.309,-464.575,0,0
211751.725,527.357,-483.05,0,0
213053.35,526.069,-486.432,0,0
214354.975,537.534,-495.91,0,0
215656.6,548.736,-509.229,0,0
216958.225,557.221,-524.408,0,0
218259.85,572.721,-537.944,0,0
219561,588.437,-557.526,0,0
220863,606.874,-583.803,0,0
222165,625.082,-622.494,0,0
223466,629.144,-672.624,0,0
224768,618.823,-721.824,0,0
226070,599.181,-769.026,0,0
227371,565.443,-813.644,0,0
228673,519.483,-845.287,0,0
229974,471.672,-859.935,0,0
231276,428.665,-862.192,0,0
232578,393.99,-857.789,0,0
233879,366.149,-852.858,0,0
235180.95,340.17,-847.827,0,0
236482.575,315.74,-842.054,0,0
237784.2,292.487,-833.623,0,0
239085.825,271.988,-824.865,0,0
240387.45,252.445,-813.614,0,0
241689.075,235.841,-801.876,0,0
242990.7,221.714,-789.774,0,0
244292.325,209.137,-778.401,0,0
245593.95,197.195,-767.142,0,0
246895.575,185.849,-755.416,0,0
248197.2,176.021,-742.78,0,0
249498.825,167.878,-730.253,0,0
250800,160.905,-718.026,0,0
252102,154.679,-705.907,0,0
253404,149.328,-693.582,0,0
254705,145.283,-680.52,0,0
256007,143.451,-668.385,0,0
257309,142.148,-656.903,0,0
258610,141.684,-645.18,0,0
259912,143.702,-633.434,0,0
261213,148.041,-623.885,0,0
262515,153.171,-616.838,0,0
263817,158.432,-611.601,0,0
265118,164.586,-608.422,0,0
266420,171.204,-609.716,0,0
267721.55,173.091,-616.137,0,0
269023.175,167.54,-622.135,0,0
270324.8,157.652,-622.647,0,0
271626.425,148.236,-617.326,0,0
272928.05,142.256,-608.717,0,0
274229.675,140.184,-599.839,0,0
275531.3,140.019,-592.37,0,0
276832.925,140.956,-585.775,0,0
278134.55,143.542,-581.196,0,0
279436.175,145.393,-578.701,0,0
280737.8,146.086,-577.583,0,0
282039.425,144.873,-577.423,0,0
283341,141.651,-575.846,0,0
284643,137.988,-572.553,0,0
285944,134.866,-568.639,0,0
287246,130.996,-563.248,0,0
288548,128.765,-555.027,0,0
289849,131.197,-547.549,0,0
291151,134.15,-543.548,0,0
292452,135.431,-541.069,0,0
293754,134.246,-538.2,0,0
295056,133.294,-531.61,0,0
296357,136.15,-524.389,0,0
297659,141.066,-519.361,0,0
298960.525,146.414,-515.949,0,0
300262.15,151.864,-514.046,0,0
301563.775,157.749,-512.826,0,0
302865.4,164.495,-513.693,0,0
304167.025,169.873,-517.359,0,0
305468.65,173.742,-521.896,0,0
306770.275,176.92,-527.208,0,0
308071.9,178.06,-534.447,0,0
309373.525,176.181,-541.339,0,0
310675.15,173.755,-547.187,0,0
311976.775,169.751,-554.024,0,0
313278.4,162.522,-559.622,0,0
314580,154.469,-562.352,0,0
315882,146.83,-563.476,0,0
317183,139.029,-563.846,0,0
318485,131.005,-562.763,0,0
319787,123.447,-560.237,0,0
321088,116.555,-556.622,0,0
322390,110.554,-552.054,0,0
323691,105.501,-546.481,0,0
324993,102.637,-540.901,0,0
326295,100.826,-536.366,0,0
327596,99.496,-532.581,0,0
328898,98.314,-529.676,0,0
330200,96.8566,-527.784,0,0
331501.125,94.4669,-526.294,0,0
332802.75,91.4293,-524.476,0,0
334104.375,88.0066,-522.46,0,0
335406.0,84.198,-519.752,0,0
336707.625,80.4522,-516.46,0,0
338009.25,77.0825,-512.624,0,0
339310.875,74.0804,-508.62,0,0
340612.5,71.4476,-504.402,0,0
341914.125,69.0921,-500.256,0,0
343215.75,67.0337,-496.146,0,0
344517.375,64.9633,-492.019,0,0
345819.0,62.9524,-487.731,0,0
347121,61.1302,-483.269,0,0
348422,59.6764,-478.538,0,0
349724,58.7231,-473.797,0,0
351025,58.0959,-469.307,0,0
352327,57.7773,-465,0,0
353629,57.4223,-461.016,0,0
354930,57.0194,-457.038,0,0
356232,56.9072,-452.905,0,0
357534,57.0956,-448.932,0,0
358835,57.3224,-445.378,0,0
360137,57.4943,-441.698,0,0
361438,57.8966,-438.308,0,0
362740.1,58.0601,-434.88,0,0
364041.725,58.4069,-431.415,0,0
365343.35,58.8735,-428.078,0,0
366644.975,59.2864,-424.694,0,0
367946.6,59.4865,-421.18,0,0
369248.225,59.9828,-416.728,0,0
370549.85,62.0482,-411.997,0,0
371851.475,65.24,-408.41,0,0
373153.1,68.6792,-405.976,0,0
374454.725,72.1433,-404.679,0,0
375756.35,74.8552,-404.407,0,0
377057.975,76.7286,-404.305,0,0
378359.6,78.4295,-404.29,0,0
379661,79.6749,-404.401,0,0
380963,81.1146,-404.468,0,0
382264,82.6731,-406.036,0,0
383566,82.397,-408.371,0,0
384868,80.4854,-410.16,0,0
386169,77.749,-410.754,0,0
387471,74.6097,-410.264,0,0
388773,71.8561,-408.442,0,0
390074,70.1434,-406.237,0,0
391376,68.8935,-404.521,0,0
392677,67.3365,-403.041,0,0
393979,65.3053,-401.457,0,0
395280.7,62.9735,-399.142,0,0
396582.325,60.9563,-396.116,0,0
397883.95,59.5341,-392.828,0,0
399185.575,58.4143,-389.453,0,0
400006.6,57.7921,-387.286,0,0