File: Accelerated corrosion test data/2025-10-09_18-00-04/sample_6.csv
Frequency (Hz),Impedance (ohms),Phase (Radians),Temperature (C),Humidity (%)
10000.0,4215.65,-6545.21,0,0
11301.625,3587.02,-6165.66,0,0
12603.25,3087.38,-5802.18,0,0
13904.875,2682.52,-5468.86,0,0
15206.5,2351.86,-5157.17,0,0
16508.125,2078.9,-4872.87,0,0
17809.75,1850.59,-4612.58,0,0
19111.375,1661.28,-4374.2,0,0
20413.0,1497.71,-4158.92,0,0
21714.625,1358.21,-3957.78,0,0
23016.25,1242.02,-3771.36,0,0
24317.875,1136.43,-3610.02,0,0
25619.5,1044.29,-3454.86,0,0
26921.1,964.108,-3310.39,0,0
28222.7,893.978,-3177.53,0,0
29524.4,830.559,-3051.78,0,0
30826,777.037,-2937.05,0,0
32127.6,728.462,-2827.39,0,0
33429.2,690.74,-2729.65,0,0
34730.9,649.176,-2641.22,0,0
36032.5,610.556,-2557.42,0,0
37334.1,574.231,-2473.05,0,0
38635.7,542.994,-2392.57,0,0
39937.4,518.281,-2315.76,0,0
41239,496.552,-2248.06,0,0
42540.6,473.499,-2185.59,0,0
43842.225,452.544,-2119.41,0,0
45143.85,439.036,-2059.54,0,0
46445.475,427.603,-2007.74,0,0
47747.1,413.246,-1962.61,0,0
49048.725,396.783,-1920.2,0,0
50350.35,375.26,-1879.03,0,0
51651.975,355.06,-1832.77,0,0
52953.6,338.737,-1787.68,0,0
54255.225,321.648,-1744.72,0,0
55556.85,306.708,-1701.5,0,0
56858.475,294.764,-1656.09,0,0
58160.1,288.161,-1616.37,0,0
59461.7,280.092,-1579.98,0,0
60763.3,271.819,-1544.09,0,0
62065,265.599,-1510.66,0,0
63366.6,261.126,-1475.67,0,0
64668.2,255.861,-1450.4,0,0
65969.8,245.76,-1421.93,0,0
67271.5,236.365,-1390.41,0,0
68573.1,232.229,-1358.43,0,0
69874.7,230.766,-1329.99,0,0
71176.3,229.588,-1306.06,0,0
72478,224.948,-1284.83,0,0
73779.6,218.841,-1261.72,0,0
75081.2,214.441,-1237.95,0,0
76382.825,210.411,-1215.76,0,0
77684.45,206.721,-1194.21,0,0
78986.075,202.889,-1173.26,0,0
80287.7,199.613,-1153.02,0,0
81589.325,195.923,-1133.95,0,0
82890.95,191.561,-1114.65,0,0
84192.575,187.682,-1095.33,0,0
85494.2,183.759,-1076.35,0,0
86795.825,180.468,-1056.27,0,0
88097.45,178.992,-1036.57,0,0
89399.075,179.712,-1018.65,0,0
90700.7,180.306,-1004.51,0,0
92002.3,177.035,-991.981,0,0
93303.9,172.492,-976.061,0,0
94605.6,170.6,-958.875,0,0
95907.2,170.166,-944.999,0,0
97208.8,167.397,-932.915,0,0
98510.4,163.016,-917.349,0,0
99812.1,162.258,-902.237,0,0
101114,161.584,-890.479,0,0
102415,157.932,-878.521,0,0
103717,153.994,-867.213,0,0
105019,146.764,-855.326,0,0
106320.175,137.977,-837.61,0,0
107621.8,135.041,-815.895,0,0
108923.425,136.461,-796.7,0,0
110225.05,139.123,-778.721,0,0
111526.675,144.003,-761.972,0,0
112828.3,150.943,-750.05,0,0
114129.925,155.474,-740.059,0,0
115431.55,160.639,-730.335,0,0
116733.175,167.136,-726.647,0,0
118034.8,161.252,-726.211,0,0
119336.425,154.298,-714.892,0,0
120638.05,154.183,-701.164,0,0
121939.675,154.294,-695.682,0,0
123241,149.483,-685.38,0,0
124543,147.189,-674.848,0,0
125845,143.94,-664.157,0,0
127146,140.451,-652.002,0,0
128448,139.194,-637.583,0,0
129749,140.962,-625.208,0,0
131051,141.003,-615.098,0,0
132353,139.897,-603.975,0,0
133654,139.286,-592.273,0,0
134956,138.673,-579.777,0,0
136258,138.918,-566.237,0,0
137559,141.128,-552.809,0,0
138860.775,143.943,-540.514,0,0
140162.4,147.268,-528.373,0,0
141464.025,152.304,-516.887,0,0
142765.65,156.422,-508.424,0,0
144067.275,158.939,-499.359,0,0
145368.9,162.132,-489.871,0,0
146670.525,164.444,-481.79,0,0
147972.15,164.86,-473.965,0,0
149273.775,163.782,-462.713,0,0
150575.4,164.279,-448.854,0,0
151877.025,167.858,-432.932,0,0
153178.65,177.311,-419.698,0,0
154480,184.308,-412.626,0,0
155782,188.645,-401.336,0,0
157084,198.182,-392.946,0,0
158385,201.921,-388.764,0,0
159687,202.954,-380.257,0,0
160988,205.079,-369.776,0,0
162290,207.387,-358.956,0,0
163592,210.446,-345.678,0,0
164893,214.59,-332.034,0,0
166195,220.505,-316.68,0,0
167497,228.152,-302.327,0,0
168798,237.03,-287.157,0,0
170100,247.253,-273.196,0,0
171401.375,257.516,-259.022,0,0
172703.0,268.602,-244.503,0,0
174004.625,279.823,-229.496,0,0
175306.25,291.969,-212.089,0,0
176607.875,307.156,-192.533,0,0
177909.5,326.777,-171.516,0,0
179211.125,352.721,-150.597,0,0
180512.75,384.374,-135.557,0,0
181814.375,415.154,-124.272,0,0
183116.0,448.025,-115.549,0,0
184417.625,478.128,-108.218,0,0
185719.25,509.913,-95.8635,0,0
187021,550.67,-80.1257,0,0
188322,604.325,-65.4159,0,0
189624,675.268,-60.9608,0,0
190926,756.843,-80.9612,0,0
192227,827.597,-126.479,0,0
193529,884.43,-179.385,0,0
194831,936.447,-239.28,0,0
196132,981.676,-309.691,0,0
197434,1016.04,-391.149,0,0
198735,1035.44,-480.697,0,0
200037,1038.81,-576.192,0,0
201339,1021.08,-674.823,0,0
202640.35,979.554,-766.65,0,0
203941.975,920.993,-842.27,0,0
205243.6,852.377,-901.224,0,0
206545.225,779.242,-942.663,0,0
207846.85,706.071,-968.297,0,0
209148.475,636.261,-980.508,0,0
210450.1,570.78,-981.997,0,0
211751.725,510.334,-974.722,0,0
213053.35,458.444,-958.064,0,0
214354.975,415.627,-940.029,0,0
215656.6,377.649,-919.958,0,0
216958.225,344.891,-898.504,0,0
218259.85,316.217,-876.113,0,0
219561,291.192,-852.966,0,0
220863,270.183,-828.909,0,0
222165,253.177,-804.179,0,0
223466,240.458,-778.698,0,0
224768,233.862,-753.669,0,0
226070,233.285,-733.285,0,0
227371,233.908,-720.544,0,0
228673,229.805,-711.512,0,0
229974,222.662,-700.755,0,0
231276,215.903,-687.668,0,0
232578,210.701,-673.347,0,0
233879,207.444,-658.54,0,0
235180.95,206.329,-643.912,0,0
236482.575,206.986,-629.89,0,0
237784.2,209.331,-616.711,0,0
239085.825,213.295,-604.388,0,0
240387.45,218.93,-593.35,0,0
241689.075,226.111,-584.057,0,0
242990.7,234.415,-576.45,0,0
244292.325,244.088,-570.762,0,0
245593.95,254.825,-568.369,0,0
246895.575,264.636,-569.088,0,0
248197.2,273.158,-571.883,0,0
249498.825,279.796,-575.413,0,0
250800,288.198,-578.316,0,0
252102,299.603,-586.927,0,0
253404,307.04,-602.701,0,0
254705,307.653,-621.865,0,0
256007,300.469,-640.971,0,0
257309,287.191,-655.599,0,0
258610,271.496,-665.389,0,0
259912,255.02,-671.033,0,0
261213,238.921,-673.134,0,0
262515,223.873,-672.253,0,0
263817,210.564,-669.712,0,0
265118,198.382,-666.363,0,0
266420,187.214,-661.9,0,0
267721.55,176.982,-656.973,0,0
269023.175,167.555,-651.646,0,0
270324.8,158.808,-645.945,0,0
271626.425,150.72,-639.863,0,0
272928.05,143.201,-633.504,0,0
274229.675,136.42,-626.827,0,0
275531.3,130.367,-620.053,0,0
276832.925,124.916,-613.205,0,0
278134.55,120.021,-606.355,0,0
279436.175,115.695,-599.443,0,0
280737.8,112.205,-592.426,0,0
282039.425,109.621,-586.144,0,0
283341,106.865,-580.452,0,0
284643,104.278,-574.516,0,0
285944,102.508,-568.865,0,0
287246,101.033,-564.336,0,0
288548,98.723,-560.213,0,0
289849,96.2084,-555.664,0,0
291151,94.0327,-551.064,0,0
292452,92.0492,-546.647,0,0
293754,90.0192,-542.658,0,0
295056,87.4982,-538.714,0,0
296357,84.7156,-534.183,0,0
297659,82.3425,-528.862,0,0
298960.525,81.2651,-523.513,0,0
300262.15,80.5902,-519.29,0,0
301563.775,79.4739,-515.517,0,0
302865.4,78.0716,-511.695,0,0
304167.025,76.7445,-507.683,0,0
305468.65,75.7443,-503.723,0,0
306770.275,74.9716,-500.266,0,0
308071.9,73.8013,-497.099,0,0
309373.525,72.3843,-493.825,0,0
310675.15,71.0951,-490.389,0,0
311976.775,69.7106,-487.147,0,0
313278.4,68.2709,-483.742,0,0
314580,66.8551,-480.144,0,0
315882,65.6089,-476.601,0,0
317183,64.4897,-473.095,0,0
318485,63.2978,-469.724,0,0
319787,62.0567,-466.203,0,0
321088,60.988,-462.742,0,0
322390,60.0667,-459.128,0,0
323691,59.285,-455.762,0,0
324993,58.4847,-452.448,0,0
326295,57.5873,-449.216,0,0
327596,56.6316,-445.911,0,0
328898,55.8172,-442.575,0,0
330200,55.0707,-439.193,0,0
331501.125,54.3328,-435.821,0,0
332802.75,53.7572,-432.451,0,0
334104.375,53.2628,-429.105,0,0
335406.0,52.9241,-425.861,0,0
336707.625,52.6034,-422.776,0,0
338009.25,52.2089,-419.777,0,0
339310.875,51.8298,-416.703,0,0
340612.5,51.57,-413.63,0,0
341914.125,51.3566,-410.573,0,0
343215.75,51.4058,-407.677,0,0
344517.375,51.2363,-405.282,0,0
345819.0,50.6486,-402.678,0,0
347121,50.1523,-399.684,0,0
348422,49.9206,-396.674,0,0
349724,49.8406,-393.785,0,0
351025,49.8229,-390.937,0,0
352327,49.9287,-388.21,0,0
353629,50.0552,-385.662,0,0
354930,50.1264,-383.306,0,0
356232,50.0024,-380.877,0,0
357534,49.8973,-378.495,0,0
358835,49.9424,-376.166,0,0
360137,49.8187,-373.901,0,0
361438,49.6472,-371.652,0,0
362740.1,49.3248,-369.289,0,0
364041.725,49.088,-366.88,0,0
365343.35,48.9131,-364.425,0,0
366644.975,48.866,-361.954,0,0
367946.6,48.8314,-359.578,0,0
369248.225,48.7742,-357.22,0,0
370549.85,48.7468,-354.819,0,0
371851.475,48.8618,-352.555,0,0
373153.1,49.043,-350.399,0,0
374454.725,49.0422,-348.584,0,0
375756.35,48.6534,-346.653,0,0
377057.975,48.1207,-344.49,0,0
378359.6,47.7192,-342.113,0,0
379661,47.3861,-339.695,0,0
380963,47.0302,-337.156,0,0
382264,46.9751,-334.395,0,0
383566,47.2969,-331.895,0,0
384868,47.2678,-329.828,0,0
386169,46.9837,-327.478,0,0
387471,46.8262,-324.997,0,0
388773,46.7397,-322.466,0,0
390074,46.7045,-319.928,0,0
391376,46.7137,-317.382,0,0
392677,46.7185,-314.809,0,0
393979,46.8052,-312.189,0,0
395280.7,46.919,-309.568,0,0
396582.325,47.0501,-306.934,0,0
397883.95,47.2631,-304.225,0,0
399185.575,47.4888,-301.549,0,0
400006.6,47.6853,-299.863,0,0