File: Accelerated corrosion test data/2025-10-09_18-00-04/sample_2.csv
Frequency (Hz),Impedance (ohms),Phase (Radians),Temperature (C),Humidity (%)
10000.0,235.311,-11390,0,0
11301.625,208.871,-10088.7,0,0
12603.25,187.879,-9057.59,0,0
13904.875,189.493,-8214.99,0,0
15206.5,168.629,-7525.37,0,0
16508.125,146.351,-6934.62,0,0
17809.75,136.09,-6428.87,0,0
19111.375,131.063,-5990.87,0,0
20413.0,120.615,-5609.06,0,0
21714.625,128.91,-5280.49,0,0
23016.25,113.897,-4985.61,0,0
24317.875,105.064,-4720.66,0,0
25619.5,99.0747,-4477.88,0,0
26921.1,96.1632,-4260.78,0,0
28222.7,91.7931,-4062.04,0,0
29524.4,94.3384,-3878.95,0,0
30826,88.8967,-3724.68,0,0
32127.6,83.1767,-3571.31,0,0
33429.2,80.7372,-3433.34,0,0
34730.9,76.7339,-3303.11,0,0
36032.5,74.0343,-3182.29,0,0
37334.1,71.9525,-3068.99,0,0
38635.7,69.522,-2964.04,0,0
39937.4,67.7883,-2865.76,0,0
41239,66.3233,-2773.13,0,0
42540.6,65.1375,-2687.01,0,0
43842.225,63.7338,-2604.85,0,0
45143.85,62.7009,-2527.74,0,0
46445.475,62.0507,-2455.55,0,0
47747.1,61.1182,-2386.39,0,0
49048.725,61.1916,-2322.54,0,0
50350.35,58.392,-2260.82,0,0
51651.975,57.1018,-2201.75,0,0
52953.6,55.7281,-2144.69,0,0
54255.225,54.7818,-2090.19,0,0
55556.85,54.4859,-2038.29,0,0
56858.475,54.284,-1988.8,0,0
58160.1,54.6048,-1941.53,0,0
59461.7,55.0445,-1895.7,0,0
60763.3,56.6629,-1853.45,0,0
62065,59.1741,-1815.13,0,0
63366.6,56.0258,-1778.81,0,0
64668.2,53.3015,-1740.31,0,0
65969.8,51.0892,-1701.31,0,0
67271.5,51.681,-1664.05,0,0
68573.1,53.9045,-1630.39,0,0
69874.7,56.3608,-1600.14,0,0
71176.3,52.9751,-1572.06,0,0
72478,48.2805,-1541.55,0,0
73779.6,45.7088,-1508.93,0,0
75081.2,45.6276,-1476.65,0,0
76382.825,47.3158,-1446.33,0,0
77684.45,50.0602,-1418.2,0,0
78986.075,53.3975,-1393.9,0,0
80287.7,52.1827,-1372.48,0,0
81589.325,49.6702,-1347.44,0,0
82890.95,48.4917,-1321.82,0,0
84192.575,49.248,-1297.08,0,0
85494.2,50.0113,-1273.62,0,0
86795.825,51.089,-1251.73,0,0
88097.45,51.6077,-1230.76,0,0
89399.075,51.6006,-1209.18,0,0
90700.7,51.9559,-1189.12,0,0
92002.3,53.2084,-1168.03,0,0
93303.9,55.8487,-1149.08,0,0
94605.6,55.7365,-1132.41,0,0
95907.2,55.0637,-1113.14,0,0
97208.8,58.4562,-1096.12,0,0
98510.4,58.2059,-1082.55,0,0
99812.1,53.867,-1068.32,0,0
101114,50.891,-1050.35,0,0
102415,47.421,-1030.34,0,0
103717,46.4849,-1009.44,0,0
105019,49.8466,-988.944,0,0
106320.175,54.7664,-972.223,0,0
107621.8,57.9239,-959.992,0,0
108923.425,56.5872,-947.939,0,0
110225.05,53.4553,-932.7,0,0
111526.675,52.3344,-915.078,0,0
112828.3,52.8565,-897.724,0,0
114129.925,54.6142,-880.672,0,0
115431.55,57.4334,-864.416,0,0
116733.175,60.9431,-849.301,0,0
118034.8,64.8556,-835.603,0,0
119336.425,68.2966,-823.854,0,0
120638.05,70.1728,-813.566,0,0
121939.675,69.254,-802.304,0,0
123241,68.1915,-789.233,0,0
124543,67.509,-775.181,0,0
125845,67.8059,-760.105,0,0
127146,69.4694,-745.056,0,0
128448,72.1955,-730.837,0,0
129749,74.7513,-717.754,0,0
131051,77.0112,-704.662,0,0
132353,78.6159,-692.076,0,0
133654,79.881,-678.03,0,0
134956,81.576,-663.728,0,0
136258,84.1918,-648.634,0,0
137559,87.4322,-633.529,0,0
138860.775,91.0127,-618.587,0,0
140162.4,94.5862,-602.485,0,0
141464.025,100.459,-583.887,0,0
142765.65,110.258,-566.265,0,0
144067.275,121.675,-551.489,0,0
145368.9,133.313,-537.247,0,0
146670.525,146.378,-523.814,0,0
147972.15,162.384,-510.967,0,0
149273.775,182.337,-499.716,0,0
150575.4,208.661,-497.701,0,0
151877.025,228.969,-510.215,0,0
153178.65,234.064,-524.9,0,0
154480,230.47,-534.205,0,0
155782,224.896,-535.41,0,0
157084,219.242,-532.828,0,0
158385,215.78,-524.319,0,0
159687,217.008,-516.572,0,0
160988,218.428,-510.508,0,0
162290,224.428,-505.824,0,0
163592,222.03,-510.745,0,0
164893,209.575,-507.069,0,0
166195,197.379,-493.716,0,0
167497,190.455,-473.44,0,0
168798,189.287,-450.524,0,0
170100,192.703,-429.484,0,0
171401.375,196.713,-406.811,0,0
172703.0,206.017,-382.673,0,0
174004.625,219.497,-357.599,0,0
175306.25,240.617,-333.518,0,0
176607.875,267.201,-318.099,0,0
177909.5,295,-307.509,0,0
179211.125,316.038,-310.058,0,0
180512.75,324.733,-306.834,0,0
181814.375,331.143,-290.037,0,0
183116.0,349.619,-268.359,0,0
184417.625,376.757,-244.534,0,0
185719.25,414.934,-225.815,0,0
187021,456.183,-217.923,0,0
188322,499.938,-212.458,0,0
189624,541.912,-214.679,0,0
190926,587.7,-213.627,0,0
192227,647.329,-216.781,0,0
193529,718.493,-239.813,0,0
194831,781.693,-289.477,0,0
196132,830.685,-352.924,0,0
197434,865.299,-420.908,0,0
198735,891.431,-500.429,0,0
200037,894.875,-582.642,0,0
201339,883.001,-670.273,0,0
202640.35,843.854,-749.386,0,0
203941.975,786.985,-806.637,0,0
205243.6,732.448,-846.188,0,0
206545.225,670.601,-869.99,0,0
207846.85,620.178,-875.532,0,0
209148.475,583.662,-879.223,0,0
210450.1,544.981,-889.346,0,0
211751.725,500.296,-889.471,0,0
213053.35,463.804,-878.056,0,0
214354.975,433.822,-863.887,0,0
215656.6,410.856,-848.795,0,0
216958.225,392.351,-833.007,0,0
218259.85,379.441,-817.446,0,0
219561,370.843,-804.124,0,0
220863,365.074,-793.426,0,0
222165,362.279,-784.181,0,0
223466,362.166,-780.566,0,0
224768,359.326,-781.049,0,0
226070,354.278,-780.48,0,0
227371,352.095,-781.398,0,0
228673,349.844,-787.551,0,0
229974,341.639,-798.147,0,0
231276,326.813,-806.504,0,0
232578,309.674,-810.712,0,0
233879,291.629,-811.506,0,0
235180.95,274.138,-809.68,0,0
236482.575,256.967,-806.078,0,0
237784.2,239.82,-800.354,0,0
239085.825,224.142,-792.247,0,0
240387.45,210.233,-782.442,0,0
241689.075,198.658,-772.252,0,0
242990.7,188.894,-761.92,0,0
244292.325,180,-753.204,0,0
245593.95,171.121,-745.063,0,0
246895.575,160.321,-737.522,0,0
248197.2,147.89,-726.171,0,0
249498.825,137.818,-712.289,0,0
250800,129.694,-696.882,0,0
252102,124.666,-680.229,0,0
253404,122.582,-664.242,0,0
254705,121.961,-649.042,0,0
256007,123.243,-633.497,0,0
257309,127.845,-619.375,0,0
258610,133.757,-607.307,0,0
259912,141.191,-596.635,0,0
261213,150.308,-588.665,0,0
262515,159.806,-583.935,0,0
263817,168.627,-581.86,0,0
265118,175.994,-582.925,0,0
266420,179.564,-584.962,0,0
267721.55,182.033,-585.78,0,0
269023.175,182.797,-586.539,0,0
270324.8,183.071,-584.394,0,0
271626.425,186.471,-580.469,0,0
272928.05,193.155,-578.175,0,0
274229.675,203.595,-579.199,0,0
275531.3,215.157,-589.431,0,0
276832.925,217.651,-608.162,0,0
278134.55,208.277,-623.761,0,0
279436.175,195.562,-632.649,0,0
280737.8,181.723,-636.794,0,0
282039.425,168.806,-638.283,0,0
283341,153.749,-636.481,0,0
284643,142.777,-630.103,0,0
285944,130.774,-625.136,0,0
287246,118.151,-613.325,0,0
288548,111.654,-596.481,0,0
289849,114.248,-577.597,0,0
291151,126.66,-565.792,0,0
292452,141.05,-565.603,0,0
293754,146.311,-575.016,0,0
295056,142.752,-578.637,0,0
296357,144.786,-578.694,0,0
297659,144.451,-587.818,0,0
298960.525,135.829,-593.237,0,0
300262.15,126.616,-594.236,0,0
301563.775,118.11,-591.019,0,0
302865.4,114.304,-587.285,0,0
304167.025,110.544,-587.357,0,0
305468.65,103.17,-587.602,0,0
306770.275,94.3806,-584.837,0,0
308071.9,86.5756,-579.389,0,0
309373.525,80.7251,-573.084,0,0
310675.15,75.8504,-566.94,0,0
311976.775,71.5171,-560.391,0,0
313278.4,68.2776,-553.639,0,0
314580,65.7323,-547.477,0,0
315882,63.3142,-541.353,0,0
317183,61.5433,-535.055,0,0
318485,60.3644,-529.007,0,0
319787,59.5405,-523.641,0,0
321088,58.5776,-518.365,0,0
322390,57.674,-513.088,0,0
323691,56.7359,-507.476,0,0
324993,56.5189,-501.032,0,0
326295,58.6526,-494.566,0,0
327596,61.9365,-490.861,0,0
328898,63.9612,-488.632,0,0
330200,65.4474,-486.94,0,0
331501.125,66.2366,-486.139,0,0
332802.75,65.4543,-485.91,0,0
334104.375,62.9695,-484.538,0,0
335406.0,60.5995,-481.628,0,0
336707.625,58.638,-478.254,0,0
338009.25,57.0059,-474.423,0,0
339310.875,55.7097,-470.328,0,0
340612.5,54.9192,-466.041,0,0
341914.125,54.627,-461.75,0,0
343215.75,54.5593,-457.499,0,0
344517.375,54.8829,-453.274,0,0
345819.0,55.7472,-449.186,0,0
347121,56.9545,-445.553,0,0
348422,58.3159,-442.184,0,0
349724,59.9214,-439.294,0,0
351025,61.5293,-436.848,0,0
352327,62.8377,-434.985,0,0
353629,63.9182,-433.018,0,0
354930,64.9796,-431.09,0,0
356232,66.2048,-429.255,0,0
357534,67.6675,-427.636,0,0
358835,69.3242,-426.706,0,0
360137,70.5898,-426.654,0,0
361438,70.9911,-426.864,0,0
362740.1,70.6989,-427.086,0,0
364041.725,69.8327,-426.951,0,0
365343.35,68.6425,-426.51,0,0
366644.975,67.1056,-425.387,0,0
367946.6,66.1055,-423.623,0,0
369248.225,65.8886,-422.063,0,0
370549.85,65.5627,-421.486,0,0
371851.475,64.1425,-420.794,0,0
373153.1,62.8922,-419.471,0,0
374454.725,61.7808,-418.312,0,0
375756.35,60.2959,-417.264,0,0
377057.975,58.6626,-415.762,0,0
378359.6,57.1292,-414.411,0,0
379661,54.5834,-413.061,0,0
380963,52.2757,-409.44,0,0
382264,52.1475,-406.688,0,0
383566,51.0541,-405.219,0,0
384868,49.1729,-403.159,0,0
386169,47.2508,-400.41,0,0
387471,45.7194,-397.134,0,0
388773,44.7408,-393.616,0,0
390074,44.5068,-390.171,0,0
391376,44.7207,-387.442,0,0
392677,44.2263,-385.66,0,0
393979,42.711,-383.324,0,0
395280.7,41.2417,-379.924,0,0
396582.325,40.4677,-375.844,0,0
397883.95,40.4819,-371.885,0,0
399185.575,40.9302,-368.184,0,0
400006.6,41.4025,-366.075,0,0