File: Accelerated corrosion test data/2025-10-09_18-00-04/sample_7.csv
Frequency (Hz),Impedance (ohms),Phase (Radians),Temperature (C),Humidity (%)
10000.0,274.934,-12078.2,0,0
11301.625,247.817,-10686.1,0,0
12603.25,258.502,-9628.45,0,0
13904.875,210.794,-8740.88,0,0
15206.5,194.898,-8006.67,0,0
16508.125,172.033,-7365.32,0,0
17809.75,172.95,-6811.51,0,0
19111.375,181.788,-6367.88,0,0
20413.0,168.108,-5977.44,0,0
21714.625,155.899,-5635.77,0,0
23016.25,130.635,-5312.69,0,0
24317.875,123.616,-5019.82,0,0
25619.5,119.393,-4756.3,0,0
26921.1,124.022,-4511.63,0,0
28222.7,180.365,-4309.71,0,0
29524.4,137.022,-4165.07,0,0
30826,133.96,-3983.46,0,0
32127.6,117.912,-3837.98,0,0
33429.2,101.851,-3687.11,0,0
34730.9,93.0879,-3542.78,0,0
36032.5,89.0588,-3408.94,0,0
37334.1,86.572,-3285.35,0,0
38635.7,86.8045,-3168.51,0,0
39937.4,97.6183,-3068.55,0,0
41239,87.2214,-2981.02,0,0
42540.6,80.6943,-2885.01,0,0
43842.225,79.993,-2796.45,0,0
45143.85,80.8478,-2718.88,0,0
46445.475,77.7388,-2646.75,0,0
47747.1,71.477,-2570.51,0,0
49048.725,68.391,-2500.19,0,0
50350.35,66.6022,-2433.24,0,0
51651.975,64.8627,-2369.68,0,0
52953.6,64.0709,-2309.19,0,0
54255.225,62.7837,-2252.38,0,0
55556.85,61.4832,-2197.68,0,0
56858.475,60.7211,-2145.42,0,0
58160.1,60.0301,-2095.06,0,0
59461.7,60.301,-2047.57,0,0
60763.3,59.6864,-2003.87,0,0
62065,57.5102,-1960.52,0,0
63366.6,56.4019,-1917.81,0,0
64668.2,55.4896,-1877.29,0,0
65969.8,55.4946,-1838.89,0,0
67271.5,53.8225,-1801.96,0,0
68573.1,52.7027,-1765.31,0,0
69874.7,52.2114,-1729.93,0,0
71176.3,51.9716,-1696.58,0,0
72478,50.7699,-1664.31,0,0
73779.6,49.986,-1632.42,0,0
75081.2,49.4587,-1601.65,0,0
76382.825,48.9922,-1571.92,0,0
77684.45,48.7123,-1543.09,0,0
78986.075,48.343,-1515.14,0,0
80287.7,48.1692,-1488.03,0,0
81589.325,47.8932,-1461.73,0,0
82890.95,47.6505,-1436.21,0,0
84192.575,47.7451,-1411,0,0
85494.2,47.8103,-1387.05,0,0
86795.825,47.8904,-1363.59,0,0
88097.45,48.0092,-1340.91,0,0
89399.075,47.8125,-1318.48,0,0
90700.7,48.148,-1296.45,0,0
92002.3,48.6486,-1274.87,0,0
93303.9,49.1315,-1254.02,0,0
94605.6,50.8055,-1234.26,0,0
95907.2,50.6384,-1216,0,0
97208.8,50.1581,-1196.68,0,0
98510.4,51.0648,-1177.33,0,0
99812.1,50.6956,-1158.39,0,0
101114,52.1938,-1139.54,0,0
102415,53.825,-1121.38,0,0
103717,56.572,-1104.89,0,0
105019,57.5117,-1089.77,0,0
106320.175,57.1752,-1073.45,0,0
107621.8,58.2712,-1057.38,0,0
108923.425,59.2799,-1041.35,0,0
110225.05,59.5572,-1024.68,0,0
111526.675,62.7309,-1007.94,0,0
112828.3,66.9223,-991.95,0,0
114129.925,71.9544,-977.95,0,0
115431.55,77.5683,-965.014,0,0
116733.175,85.2635,-956.415,0,0
118034.8,88.4966,-950.274,0,0
119336.425,91.0181,-947.498,0,0
120638.05,85.0736,-946.154,0,0
121939.675,75.6381,-935.989,0,0
123241,68.5993,-923.198,0,0
124543,64.413,-908.513,0,0
125845,60.5516,-894.934,0,0
127146,57.3479,-879.986,0,0
128448,55.8524,-865.272,0,0
129749,54.5222,-850.788,0,0
131051,53.4397,-836.35,0,0
132353,52.8514,-821.102,0,0
133654,53.3669,-805.505,0,0
134956,56.2728,-790.676,0,0
136258,61.6187,-777.768,0,0
137559,62.3829,-769.918,0,0
138860.775,60.4025,-758.135,0,0
140162.4,60.9535,-744.672,0,0
141464.025,60.9587,-731.533,0,0
142765.65,62.2594,-717.456,0,0
144067.275,64.7463,-704.688,0,0
145368.9,66.2474,-692.116,0,0
146670.525,67.3638,-678.981,0,0
147972.15,69.1539,-665.73,0,0
149273.775,69.6103,-652.656,0,0
150575.4,70.5888,-636.727,0,0
151877.025,73.2931,-619.381,0,0
153178.65,78.3728,-601.65,0,0
154480,85.2699,-583.649,0,0
155782,94.7858,-566.368,0,0
157084,106.672,-550.825,0,0
158385,119.787,-538.922,0,0
159687,128.082,-530.596,0,0
160988,131.239,-515.424,0,0
162290,141.838,-491.428,0,0
163592,161.534,-467.966,0,0
164893,187.774,-450.093,0,0
166195,217.583,-431.087,0,0
167497,263.375,-419.404,0,0
168798,318.275,-426.733,0,0
170100,364.766,-456.827,0,0
171401.375,397.426,-504.148,0,0
172703.0,409.636,-564.828,0,0
174004.625,381.964,-619.051,0,0
175306.25,340.497,-633.909,0,0
176607.875,320.92,-623.438,0,0
177909.5,332.144,-625.739,0,0
179211.125,328.499,-663.263,0,0
180512.75,298.963,-684.547,0,0
181814.375,257.458,-699.371,0,0
183116.0,215.087,-687.196,0,0
184417.625,186.69,-664.874,0,0
185719.25,168.294,-642.353,0,0
187021,155.037,-614.961,0,0
188322,152.514,-590.778,0,0
189624,146.095,-574.09,0,0
190926,139.573,-551.27,0,0
192227,139.236,-526.413,0,0
193529,142.065,-501.321,0,0
194831,149.157,-476.671,0,0
196132,160.712,-455.327,0,0
197434,173.55,-436.38,0,0
198735,185.424,-418.564,0,0
200037,199.062,-398.36,0,0
201339,217.524,-377.486,0,0
202640.35,243.242,-357.57,0,0
203941.975,274.208,-342.177,0,0
205243.6,310.499,-333.139,0,0
206545.225,350.488,-337.396,0,0
207846.85,377.123,-347.469,0,0
209148.475,410.337,-345.864,0,0
210450.1,462.049,-363.19,0,0
211751.725,497.786,-410.129,0,0
213053.35,510.532,-459.34,0,0
214354.975,507.189,-502.023,0,0
215656.6,495.167,-533.951,0,0
216958.225,485.483,-565.511,0,0
218259.85,461.713,-591.517,0,0
219561,430.793,-606.739,0,0
220863,401.953,-602.69,0,0
222165,387.258,-589.086,0,0
223466,384.867,-577.386,0,0
224768,387.074,-569.304,0,0
226070,399.447,-561.033,0,0
227371,417.166,-566.371,0,0
228673,435.159,-582.867,0,0
229974,443.79,-609.989,0,0
231276,441.578,-643.771,0,0
232578,428.122,-674.753,0,0
233879,400.801,-705.791,0,0
235180.95,357.37,-719.326,0,0
236482.575,322.847,-711.222,0,0
237784.2,295.126,-702.61,0,0
239085.825,271.637,-681.125,0,0
240387.45,269.816,-662.169,0,0
241689.075,262.971,-658.216,0,0
242990.7,249.195,-647.373,0,0
244292.325,242.165,-627.914,0,0
245593.95,248.876,-613.699,0,0
246895.575,252.347,-609.27,0,0
248197.2,253.494,-603.92,0,0
249498.825,256.111,-598.438,0,0
250800,260.064,-595.917,0,0
252102,264.683,-596.047,0,0
253404,267.354,-600.763,0,0
254705,263.931,-607.639,0,0
256007,255.895,-610.916,0,0
257309,246.121,-609.635,0,0
258610,238.116,-603.152,0,0
259912,233.521,-595.949,0,0
261213,231.092,-585.282,0,0
262515,236.479,-574.141,0,0
263817,248.068,-570.916,0,0
265118,255.46,-575.804,0,0
266420,258.763,-579.76,0,0
267721.55,262.633,-586.293,0,0
269023.175,261.91,-594.037,0,0
270324.8,262.288,-598.531,0,0
271626.425,266.459,-606.618,0,0
272928.05,269.711,-629.621,0,0
274229.675,249.928,-657.852,0,0
275531.3,213.856,-670.092,0,0
276832.925,177.652,-661.922,0,0
278134.55,152.178,-639.918,0,0
279436.175,140.846,-616.173,0,0
280737.8,137.779,-595.633,0,0
282039.425,137.444,-582.78,0,0
283341,133.86,-569.307,0,0
284643,134.568,-553.273,0,0
285944,139.805,-540.156,0,0
287246,145.854,-531.821,0,0
288548,149.109,-524.681,0,0
289849,152.936,-515.848,0,0
291151,159.396,-506.937,0,0
292452,167.426,-500.908,0,0
293754,175.368,-495.978,0,0
295056,183.898,-491.451,0,0
296357,194.951,-487.828,0,0
297659,208.479,-487.487,0,0
298960.525,221.827,-491.532,0,0
300262.15,235.672,-498.484,0,0
301563.775,250.366,-510.901,0,0
302865.4,262.206,-534.916,0,0
304167.025,257.451,-564.111,0,0
305468.65,241.954,-585.475,0,0
306770.275,221.298,-599.142,0,0
308071.9,200.205,-604.128,0,0
309373.525,180.591,-603.288,0,0
310675.15,165.081,-597.791,0,0
311976.775,153.186,-591.619,0,0
313278.4,143.095,-585.076,0,0
314580,134.147,-577.528,0,0
315882,127.929,-568.954,0,0
317183,124.077,-561.551,0,0
318485,120.788,-555.233,0,0
319787,118.44,-549.144,0,0
321088,117.055,-544.42,0,0
322390,115.277,-541.011,0,0
323691,112.662,-537.977,0,0
324993,109.755,-534.343,0,0
326295,107.618,-530.802,0,0
327596,105.343,-528.079,0,0
328898,102.409,-525.479,0,0
330200,99.2359,-522.685,0,0
331501.125,95.9429,-519.942,0,0
332802.75,91.9521,-517.364,0,0
334104.375,86.9952,-513.722,0,0
335406.0,82.3393,-509.015,0,0
336707.625,78.0437,-503.41,0,0
338009.25,74.5483,-497.063,0,0
339310.875,72.0083,-490.499,0,0
340612.5,70.1721,-484.027,0,0
341914.125,68.8312,-477.353,0,0
343215.75,68.486,-470.802,0,0
344517.375,68.9225,-464.848,0,0
345819.0,69.7247,-459.626,0,0
347121,70.5199,-455.375,0,0
348422,70.3932,-451.52,0,0
349724,69.8895,-447.028,0,0
351025,69.472,-441.983,0,0
352327,70.2308,-436.391,0,0
353629,71.9288,-431.441,0,0
354930,73.938,-427.48,0,0
356232,75.8702,-424.836,0,0
357534,76.1478,-422.602,0,0
358835,75.4459,-419.207,0,0
360137,75.3386,-414.434,0,0
361438,76.585,-409.342,0,0
362740.1,78.8195,-405.001,0,0
364041.725,81.2009,-401.21,0,0
365343.35,84.129,-397.955,0,0
366644.975,86.8967,-395.939,0,0
367946.6,89.044,-394.213,0,0
369248.225,91.151,-392.934,0,0
370549.85,92.2071,-392.803,0,0
371851.475,91.0482,-391.652,0,0
373153.1,90.2187,-388.258,0,0
374454.725,90.7323,-384.375,0,0
375756.35,92.1349,-380.636,0,0
377057.975,93.6039,-377.503,0,0
378359.6,95.2583,-373.893,0,0
379661,97.7345,-370.502,0,0
380963,100.4,-367.825,0,0
382264,102.864,-365.046,0,0
383566,106.021,-362.49,0,0
384868,109.225,-360.5,0,0
386169,112.052,-358.801,0,0
387471,115.027,-356.917,0,0
388773,118.103,-354.597,0,0
390074,122.752,-352.636,0,0
391376,127.225,-352.164,0,0
392677,131.399,-351.713,0,0
393979,135.718,-351.437,0,0
395280.7,140.729,-351.038,0,0
396582.325,147.4,-351.65,0,0
397883.95,154.932,-355.076,0,0
399185.575,161.407,-361.805,0,0
400006.6,163.971,-367.682,0,0