File: Accelerated corrosion test data/2025-10-11_18-00-03/sample_3.csv
Frequency (Hz),Impedance (ohms),Phase (Radians),Temperature (C),Humidity (%)
10000.0,249.065,-11784.4,0,0
11301.625,221.759,-10437.8,0,0
12603.25,201.456,-9367.95,0,0
13904.875,183.523,-8495.38,0,0
15206.5,171.859,-7765.52,0,0
16508.125,160.43,-7171.22,0,0
17809.75,155.163,-6642.43,0,0
19111.375,145.1,-6191.59,0,0
20413.0,158.275,-5792.57,0,0
21714.625,137.208,-5470.4,0,0
23016.25,127.401,-5164.63,0,0
24317.875,117.766,-4885.9,0,0
25619.5,113.071,-4638.96,0,0
26921.1,107.623,-4408.54,0,0
28222.7,102.83,-4202.03,0,0
29524.4,107.803,-4025.34,0,0
30826,100.462,-3853.09,0,0
32127.6,100.464,-3688.84,0,0
33429.2,98.5382,-3563.72,0,0
34730.9,87.2341,-3426.65,0,0
36032.5,82.5366,-3298.77,0,0
37334.1,79.6677,-3181.02,0,0
38635.7,77.4209,-3071.12,0,0
39937.4,75.394,-2968.71,0,0
41239,73.7143,-2871.58,0,0
42540.6,72.4338,-2781.99,0,0
43842.225,71.1418,-2696.58,0,0
45143.85,70.3722,-2616.95,0,0
46445.475,69.4028,-2541.47,0,0
47747.1,69.4719,-2468.76,0,0
49048.725,68.1063,-2403.36,0,0
50350.35,66.2629,-2338.32,0,0
51651.975,65.6818,-2275.58,0,0
52953.6,65.9685,-2215.82,0,0
54255.225,68.8626,-2161.14,0,0
55556.85,66.2175,-2113.73,0,0
56858.475,61.2755,-2060.89,0,0
58160.1,60.807,-2009.03,0,0
59461.7,61.2453,-1959.73,0,0
60763.3,62.6423,-1913.1,0,0
62065,64.6604,-1868.49,0,0
63366.6,68.3955,-1824.86,0,0
64668.2,77.2071,-1783.25,0,0
65969.8,91.4945,-1757.86,0,0
67271.5,75.5268,-1732.57,0,0
68573.1,75.8289,-1695.02,0,0
69874.7,75.3976,-1666,0,0
71176.3,70.232,-1635.34,0,0
72478,68.8567,-1602.64,0,0
73779.6,67.3221,-1574.26,0,0
75081.2,63.6564,-1546.09,0,0
76382.825,60.2099,-1516.84,0,0
77684.45,57.7481,-1487.88,0,0
78986.075,55.4982,-1459.46,0,0
80287.7,54.1095,-1431.43,0,0
81589.325,53.0588,-1404.27,0,0
82890.95,52.5277,-1377.84,0,0
84192.575,52.2465,-1352.24,0,0
85494.2,52.1933,-1327.25,0,0
86795.825,52.3862,-1302.99,0,0
88097.45,52.8818,-1279.07,0,0
89399.075,54.217,-1255.38,0,0
90700.7,56.5804,-1233.64,0,0
92002.3,58.92,-1213,0,0
93303.9,61.9198,-1194.28,0,0
94605.6,62.637,-1179.75,0,0
95907.2,57.656,-1162.04,0,0
97208.8,56.2231,-1140.93,0,0
98510.4,56.0343,-1121.42,0,0
99812.1,55.4571,-1102.49,0,0
101114,55.0015,-1082.76,0,0
102415,56.2864,-1062.32,0,0
103717,60.1993,-1044.62,0,0
105019,63.426,-1030.55,0,0
106320.175,62.7711,-1016.84,0,0
107621.8,60.3308,-1001.21,0,0
108923.425,58.6737,-983.583,0,0
110225.05,58.7167,-965.112,0,0
111526.675,60.8864,-947.31,0,0
112828.3,63.2948,-931.222,0,0
114129.925,64.8307,-915.315,0,0
115431.55,66.9214,-898.466,0,0
116733.175,70.7649,-881.931,0,0
118034.8,76.6391,-866.24,0,0
119336.425,83.0872,-854.551,0,0
120638.05,88.9394,-848.063,0,0
121939.675,86.3042,-839.873,0,0
123241,86.6497,-826.579,0,0
124543,88.1598,-815.322,0,0
125845,89.3857,-805.014,0,0
127146,88.6827,-795.271,0,0
128448,86.9675,-784.43,0,0
129749,85.3931,-771.314,0,0
131051,86.4226,-758.277,0,0
132353,86.0029,-747.278,0,0
133654,85.3711,-735.412,0,0
134956,83.7771,-722.948,0,0
136258,82.3044,-709.429,0,0
137559,82.1723,-694.214,0,0
138860.775,83.4002,-680.715,0,0
140162.4,82.5136,-667.269,0,0
141464.025,82.308,-652.943,0,0
142765.65,81.6814,-637.054,0,0
144067.275,82.0434,-619.915,0,0
145368.9,83.7347,-601.86,0,0
146670.525,86.4819,-583.106,0,0
147972.15,90.7947,-563.187,0,0
149273.775,97.4313,-543.037,0,0
150575.4,107.941,-522.777,0,0
151877.025,120.703,-506.166,0,0
153178.65,133.374,-492.562,0,0
154480,143.432,-480.673,0,0
155782,151.225,-464.499,0,0
157084,163.088,-447.003,0,0
158385,179.795,-435.359,0,0
159687,184.412,-421.167,0,0
160988,200.139,-392.53,0,0
162290,226.703,-367.852,0,0
163592,262.578,-347.627,0,0
164893,310.476,-336.814,0,0
166195,362.944,-350.005,0,0
167497,401.211,-383.937,0,0
168798,421.713,-419.95,0,0
170100,420.82,-461.509,0,0
171401.375,404.964,-477.877,0,0
172703.0,399.036,-479.767,0,0
174004.625,408.029,-487.426,0,0
175306.25,411.442,-505.199,0,0
176607.875,405.326,-522.55,0,0
177909.5,385.358,-538.214,0,0
179211.125,363.195,-531.797,0,0
180512.75,358.179,-518.556,0,0
181814.375,362.498,-514.219,0,0
183116.0,355.734,-520.872,0,0
184417.625,340.643,-517.779,0,0
185719.25,327.746,-504.173,0,0
187021,322.945,-481.328,0,0
188322,330.14,-462.512,0,0
189624,336.096,-449.023,0,0
190926,345.761,-435.019,0,0
192227,354.792,-421.933,0,0
193529,365.876,-403.929,0,0
194831,389.168,-385.878,0,0
196132,422.988,-381.632,0,0
197434,444.993,-395.028,0,0
198735,457.633,-400.539,0,0
200037,469.065,-404.932,0,0
201339,473.939,-402.29,0,0
202640.35,492.262,-392.726,0,0
203941.975,521.701,-391.287,0,0
205243.6,550.517,-403.347,0,0
206545.225,564.933,-421.153,0,0
207846.85,582.174,-421.589,0,0
209148.475,613.454,-430.774,0,0
210450.1,645.562,-452.537,0,0
211751.725,672.062,-484.292,0,0
213053.35,692.142,-519.44,0,0
214354.975,706.256,-560.853,0,0
215656.6,714.612,-605.948,0,0
216958.225,710.885,-653.719,0,0
218259.85,696.516,-696.474,0,0
219561,677.461,-732.83,0,0
220863,657.807,-770.659,0,0
222165,627.308,-806.775,0,0
223466,583.065,-832.649,0,0
224768,541.125,-834.582,0,0
226070,519.603,-830.691,0,0
227371,504.076,-839.942,0,0
228673,479.426,-853.162,0,0
229974,450.591,-859.458,0,0
231276,422.781,-861.431,0,0
232578,396.811,-859.782,0,0
233879,372.299,-856.707,0,0
235180.95,348.974,-852.217,0,0
236482.575,325.029,-847.11,0,0
237784.2,300.798,-838.41,0,0
239085.825,276.929,-824.235,0,0
240387.45,259.65,-806.013,0,0
241689.075,246.203,-788.322,0,0
242990.7,238.118,-770.206,0,0
244292.325,233.286,-755.712,0,0
245593.95,228.702,-744.048,0,0
246895.575,223.672,-732.674,0,0
248197.2,219.443,-721.329,0,0
249498.825,218.391,-710.635,0,0
250800,216.639,-704.648,0,0
252102,210.32,-698.735,0,0
253404,202.037,-688.212,0,0
254705,197.386,-673.086,0,0
256007,197.994,-656.43,0,0
257309,205.812,-642.503,0,0
258610,214.215,-634.38,0,0
259912,225.277,-626.78,0,0
261213,240.296,-628.007,0,0
262515,249.797,-639.913,0,0
263817,248.167,-653.919,0,0
265118,237.815,-664.433,0,0
266420,223.416,-667.071,0,0
267721.55,209.9,-662.462,0,0
269023.175,200.938,-653.336,0,0
270324.8,195.97,-644.385,0,0
271626.425,194.297,-634.908,0,0
272928.05,194.609,-628.381,0,0
274229.675,193.929,-621.026,0,0
275531.3,197.499,-613.055,0,0
276832.925,205.124,-609.098,0,0
278134.55,212.439,-611.586,0,0
279436.175,215.638,-618.665,0,0
280737.8,212.622,-626.647,0,0
282039.425,205.498,-631.629,0,0
283341,196.557,-633.158,0,0
284643,187.373,-631.483,0,0
285944,179.243,-626.733,0,0
287246,173.699,-619.605,0,0
288548,172.337,-612.626,0,0
289849,172.295,-608.998,0,0
291151,170.986,-606.5,0,0
292452,168.349,-603.74,0,0
293754,166.945,-598.57,0,0
295056,169.155,-594.792,0,0
296357,172.053,-595.211,0,0
297659,172.054,-598.544,0,0
298960.525,168.476,-601.898,0,0
300262.15,162.979,-603.612,0,0
301563.775,156.486,-603.725,0,0
302865.4,149.692,-601.915,0,0
304167.025,143.492,-598.805,0,0
305468.65,137.932,-594.432,0,0
306770.275,133.811,-589.181,0,0
308071.9,131.513,-584.432,0,0
309373.525,129.537,-581.273,0,0
310675.15,126.558,-578.784,0,0
311976.775,122.468,-575.909,0,0
313278.4,117.826,-571.356,0,0
314580,114.389,-565.146,0,0
315882,113.154,-558.419,0,0
317183,114.112,-553.155,0,0
318485,114.824,-550.006,0,0
319787,114.693,-547.352,0,0
321088,114.751,-544.494,0,0
322390,115.639,-542.42,0,0
323691,116.052,-542.337,0,0
324993,114.656,-543.224,0,0
326295,111.52,-543.723,0,0
327596,107.196,-542.967,0,0
328898,102.783,-540.992,0,0
330200,98.6302,-538.352,0,0
331501.125,94.4916,-535.406,0,0
332802.75,90.1514,-531.783,0,0
334104.375,85.8159,-527.273,0,0
335406.0,82.1753,-521.738,0,0
336707.625,79.4473,-515.734,0,0
338009.25,77.5497,-509.567,0,0
339310.875,76.3327,-503.132,0,0
340612.5,76.5772,-496.437,0,0
341914.125,78.6661,-490.675,0,0
343215.75,81.1364,-487.037,0,0
344517.375,83.0012,-484.993,0,0
345819.0,83.1421,-483.431,0,0
347121,82.6766,-481.174,0,0
348422,82.0334,-478.575,0,0
349724,81.6164,-475.11,0,0
351025,82.3903,-471.701,0,0
352327,84.0864,-469.761,0,0
353629,84.2742,-469.485,0,0
354930,82.7002,-468.533,0,0
356232,80.9465,-466.403,0,0
357534,79.2623,-463.654,0,0
358835,78.111,-460.099,0,0
360137,77.9539,-456.633,0,0
361438,77.9418,-453.752,0,0
362740.1,77.8674,-450.814,0,0
364041.725,78.3777,-447.639,0,0
365343.35,80.0427,-445.741,0,0
366644.975,80.2934,-445.633,0,0
367946.6,78.4224,-444.943,0,0
369248.225,75.9404,-442.015,0,0
370549.85,75.6621,-437.525,0,0
371851.475,77.367,-434.961,0,0
373153.1,77.712,-434.681,0,0
374454.725,75.9612,-433.544,0,0
375756.35,74.0832,-430.866,0,0
377057.975,73.1979,-427.082,0,0
378359.6,73.561,-423.606,0,0
379661,74.5184,-420.904,0,0
380963,75.3625,-419.272,0,0
382264,75.542,-417.784,0,0
383566,75.3587,-416.512,0,0
384868,74.5382,-415.176,0,0
386169,73.231,-413.182,0,0
387471,72.0873,-410.677,0,0
388773,70.9489,-407.494,0,0
390074,70.4583,-403.595,0,0
391376,71.0862,-399.513,0,0
392677,72.8055,-395.835,0,0
393979,75.3659,-393.353,0,0
395280.7,77.7421,-392.055,0,0
396582.325,79.6506,-391.759,0,0
397883.95,80.7241,-392.157,0,0
399185.575,80.506,-392.745,0,0
400006.6,79.9236,-392.745,0,0