File: Accelerated corrosion test data/2025-10-11_18-00-03/sample_6.csv
Frequency (Hz),Impedance (ohms),Phase (Radians),Temperature (C),Humidity (%)
10000.0,4239.98,-6445.27,0,0
11301.625,3614.37,-6083.47,0,0
12603.25,3114.94,-5733.31,0,0
13904.875,2709.61,-5410.94,0,0
15206.5,2376.95,-5108.6,0,0
16508.125,2102.8,-4830.47,0,0
17809.75,1873.43,-4575.76,0,0
19111.375,1681.64,-4341.21,0,0
20413.0,1516.96,-4129.8,0,0
21714.625,1375.82,-3933.29,0,0
23016.25,1257.39,-3749.97,0,0
24317.875,1151.62,-3588.73,0,0
25619.5,1058.41,-3435.49,0,0
26921.1,977.324,-3293.05,0,0
28222.7,906.199,-3162.06,0,0
29524.4,841.792,-3037.94,0,0
30826,787.858,-2923.98,0,0
32127.6,738.785,-2816.14,0,0
33429.2,699.734,-2720.13,0,0
34730.9,655.974,-2631.38,0,0
36032.5,616.584,-2547.48,0,0
37334.1,580.702,-2463.2,0,0
38635.7,549.432,-2383.29,0,0
39937.4,524.565,-2307.59,0,0
41239,502.335,-2240.64,0,0
42540.6,478.958,-2179.36,0,0
43842.225,457.345,-2114.29,0,0
45143.85,442.507,-2055.55,0,0
46445.475,428.763,-2004.54,0,0
47747.1,412.154,-1957.72,0,0
49048.725,394.488,-1912.59,0,0
50350.35,374.219,-1869.17,0,0
51651.975,355.355,-1822.38,0,0
52953.6,339.66,-1776.89,0,0
54255.225,323.893,-1733.62,0,0
55556.85,310.946,-1689.77,0,0
56858.475,300.193,-1645.7,0,0
58160.1,295.043,-1605.18,0,0
59461.7,290.755,-1570.24,0,0
60763.3,286.018,-1539.27,0,0
62065,274.672,-1512.77,0,0
63366.6,267.846,-1476.25,0,0
64668.2,262.027,-1451.29,0,0
65969.8,251.25,-1422.42,0,0
67271.5,243.706,-1392.64,0,0
68573.1,238.299,-1364.47,0,0
69874.7,233.289,-1338.74,0,0
71176.3,227.324,-1315.21,0,0
72478,219.609,-1290.73,0,0
73779.6,213.608,-1265.85,0,0
75081.2,208.73,-1242.01,0,0
76382.825,203.753,-1219.58,0,0
77684.45,198.439,-1197.56,0,0
78986.075,193.399,-1175.89,0,0
80287.7,188.404,-1154.55,0,0
81589.325,183.293,-1133.28,0,0
82890.95,178.915,-1111.82,0,0
84192.575,174.852,-1090.47,0,0
85494.2,172.023,-1068.82,0,0
86795.825,171.012,-1048.23,0,0
88097.45,170.288,-1028.85,0,0
89399.075,171.119,-1010.81,0,0
90700.7,171.699,-995.801,0,0
92002.3,168.63,-982.564,0,0
93303.9,164.903,-965.751,0,0
94605.6,163.964,-948.568,0,0
95907.2,163.888,-933.776,0,0
97208.8,162.451,-921.006,0,0
98510.4,159.077,-905.936,0,0
99812.1,159.064,-891.018,0,0
101114,159.154,-879.348,0,0
102415,156.456,-867.827,0,0
103717,153.347,-856.98,0,0
105019,146.964,-846.024,0,0
106320.175,138.017,-829.912,0,0
107621.8,134.352,-808.8,0,0
108923.425,135.952,-789.747,0,0
110225.05,138.414,-772.203,0,0
111526.675,143.744,-756.272,0,0
112828.3,149.816,-745.605,0,0
114129.925,152.808,-736.537,0,0
115431.55,156.53,-726.885,0,0
116733.175,160.351,-724.424,0,0
118034.8,151.709,-721.21,0,0
119336.425,144.492,-707.545,0,0
120638.05,143.939,-691.848,0,0
121939.675,145.152,-683.004,0,0
123241,142.299,-671.938,0,0
124543,141.166,-660.864,0,0
125845,138.995,-649.905,0,0
127146,136.504,-637.605,0,0
128448,135.869,-623.363,0,0
129749,137.58,-611.281,0,0
131051,137.356,-600.306,0,0
132353,136.924,-587.88,0,0
133654,137.74,-575.155,0,0
134956,138.776,-562.434,0,0
136258,140.644,-549.305,0,0
137559,144.31,-536.555,0,0
138860.775,148.05,-525.612,0,0
140162.4,151.768,-514.554,0,0
141464.025,156.508,-504.655,0,0
142765.65,159.363,-496.93,0,0
144067.275,160.795,-487.61,0,0
145368.9,163.2,-477.07,0,0
146670.525,166.13,-467.992,0,0
147972.15,166.955,-459.616,0,0
149273.775,166.65,-447.788,0,0
150575.4,168.569,-434.088,0,0
151877.025,172.476,-419.446,0,0
153178.65,180.859,-406.774,0,0
154480,187.04,-398.084,0,0
155782,191.856,-386.521,0,0
157084,200.133,-377.194,0,0
158385,204.666,-369.84,0,0
159687,208.271,-360.233,0,0
160988,212.535,-349.55,0,0
162290,217.213,-338.263,0,0
163592,222.755,-326.037,0,0
164893,228.779,-314.257,0,0
166195,235.298,-301.321,0,0
167497,242.577,-288.243,0,0
168798,251.276,-274.653,0,0
170100,260.061,-261.751,0,0
171401.375,268.499,-247.788,0,0
172703.0,277.539,-232.092,0,0
174004.625,287.631,-214.346,0,0
175306.25,300.317,-193.771,0,0
176607.875,317.131,-171.289,0,0
177909.5,339.228,-147.97,0,0
179211.125,367.93,-125.852,0,0
180512.75,400.788,-108.84,0,0
181814.375,434.932,-93.9826,0,0
183116.0,472.566,-81.7986,0,0
184417.625,511.014,-70.5871,0,0
185719.25,554.651,-57.9327,0,0
187021,608.628,-46.9293,0,0
188322,673.377,-44.5887,0,0
189624,745.449,-55.2074,0,0
190926,821.889,-82.0134,0,0
192227,895.219,-126.071,0,0
193529,964.705,-183.915,0,0
194831,1029.56,-259.816,0,0
196132,1080.66,-356.523,0,0
197434,1108.37,-469.046,0,0
198735,1105.62,-587.083,0,0
200037,1075.91,-698.255,0,0
201339,1022.78,-797.91,0,0
202640.35,950.378,-878.342,0,0
203941.975,868.793,-935.052,0,0
205243.6,786.103,-970.382,0,0
206545.225,708.501,-988.452,0,0
207846.85,637.154,-993.48,0,0
209148.475,573.729,-989.291,0,0
210450.1,518.158,-978.774,0,0
211751.725,468.665,-964.127,0,0
213053.35,426.258,-945.872,0,0
214354.975,388.983,-927.079,0,0
215656.6,355.766,-906.128,0,0
216958.225,327.594,-883.85,0,0
218259.85,303.051,-861.451,0,0
219561,282.133,-838.271,0,0
220863,265.105,-814.676,0,0
222165,252.139,-791.376,0,0
223466,243.365,-768.883,0,0
224768,238.573,-749.19,0,0
226070,235.794,-733.688,0,0
227371,231.762,-721.458,0,0
228673,225.797,-709.296,0,0
229974,219.862,-695.809,0,0
231276,215.379,-681.586,0,0
232578,212.586,-667.133,0,0
233879,211.578,-652.979,0,0
235180.95,212.342,-639.397,0,0
236482.575,214.757,-627.095,0,0
237784.2,218.455,-615.945,0,0
239085.825,223.399,-606.006,0,0
240387.45,229.269,-597.759,0,0
241689.075,235.691,-590.93,0,0
242990.7,242.862,-585.465,0,0
244292.325,251.593,-581.247,0,0
245593.95,261.376,-581.058,0,0
246895.575,269.334,-583.882,0,0
248197.2,275.377,-588.288,0,0
249498.825,279.755,-593.083,0,0
250800,285.368,-598.447,0,0
252102,289.863,-608.033,0,0
253404,291.582,-619.544,0,0
254705,289.489,-633.702,0,0
256007,281.597,-647.784,0,0
257309,269.345,-658.379,0,0
258610,255.487,-665.037,0,0
259912,241.208,-668.618,0,0
261213,227.237,-669.747,0,0
262515,213.913,-668.672,0,0
263817,201.59,-666.09,0,0
265118,190.24,-662.273,0,0
266420,179.859,-657.701,0,0
267721.55,170.431,-652.734,0,0
269023.175,161.621,-647.249,0,0
270324.8,153.565,-641.4,0,0
271626.425,146.194,-635.294,0,0
272928.05,139.424,-629.017,0,0
274229.675,133.294,-622.599,0,0
275531.3,127.697,-616.19,0,0
276832.925,122.643,-609.663,0,0
278134.55,117.962,-603.136,0,0
279436.175,113.76,-596.377,0,0
280737.8,110.473,-589.563,0,0
282039.425,108.014,-583.516,0,0
283341,105.413,-577.926,0,0
284643,102.932,-572.278,0,0
285944,101.301,-566.755,0,0
287246,99.8139,-562.549,0,0
288548,97.429,-558.641,0,0
289849,94.888,-554.208,0,0
291151,92.6886,-549.728,0,0
292452,90.5675,-545.461,0,0
293754,88.3385,-541.536,0,0
295056,85.6618,-537.456,0,0
296357,82.942,-532.653,0,0
297659,80.8455,-527.38,0,0
298960.525,79.8455,-522.338,0,0
300262.15,78.9305,-518.34,0,0
301563.775,77.5297,-514.554,0,0
302865.4,75.9888,-510.502,0,0
304167.025,74.7039,-506.361,0,0
305468.65,73.7076,-502.516,0,0
306770.275,72.6892,-498.929,0,0
308071.9,71.2864,-495.496,0,0
309373.525,69.9764,-491.881,0,0
310675.15,68.7466,-488.204,0,0
311976.775,67.4836,-484.761,0,0
313278.4,66.2051,-481.154,0,0
314580,64.9889,-477.581,0,0
315882,63.9114,-473.914,0,0
317183,62.8462,-470.392,0,0
318485,61.8876,-466.855,0,0
319787,60.9062,-463.347,0,0
321088,60.0532,-459.801,0,0
322390,59.2939,-456.353,0,0
323691,58.5814,-453.009,0,0
324993,57.8196,-449.819,0,0
326295,57.0449,-446.574,0,0
327596,56.2393,-443.312,0,0
328898,55.4769,-439.985,0,0
330200,54.8358,-436.71,0,0
331501.125,54.209,-433.409,0,0
332802.75,53.6565,-430.1,0,0
334104.375,53.227,-426.9,0,0
335406.0,52.8381,-423.725,0,0
336707.625,52.5022,-420.686,0,0
338009.25,52.1459,-417.679,0,0
339310.875,51.7406,-414.617,0,0
340612.5,51.4463,-411.539,0,0
341914.125,51.2851,-408.484,0,0
343215.75,51.2777,-405.545,0,0
344517.375,51.1603,-402.916,0,0
345819.0,50.8168,-400.2,0,0
347121,50.5494,-397.315,0,0
348422,50.4475,-394.409,0,0
349724,50.4519,-391.607,0,0
351025,50.5349,-388.898,0,0
352327,50.6844,-386.314,0,0
353629,50.8279,-383.884,0,0
354930,50.8895,-381.599,0,0
356232,50.8432,-379.365,0,0
357534,50.7104,-377.081,0,0
358835,50.5875,-374.713,0,0
360137,50.4155,-372.55,0,0
361438,50.1928,-370.294,0,0
362740.1,49.8706,-367.935,0,0
364041.725,49.6768,-365.503,0,0
365343.35,49.5103,-363.026,0,0
366644.975,49.4353,-360.61,0,0
367946.6,49.4187,-358.28,0,0
369248.225,49.408,-355.966,0,0
370549.85,49.3195,-353.653,0,0
371851.475,49.4275,-351.33,0,0
373153.1,49.5708,-349.181,0,0
374454.725,49.5582,-347.32,0,0
375756.35,49.1685,-345.424,0,0
377057.975,48.6843,-343.178,0,0
378359.6,48.358,-340.851,0,0
379661,47.9799,-338.474,0,0
380963,47.7032,-335.894,0,0
382264,47.6633,-333.18,0,0
383566,47.9504,-330.796,0,0
384868,47.8988,-328.756,0,0
386169,47.6773,-326.402,0,0
387471,47.4896,-323.962,0,0
388773,47.4026,-321.447,0,0
390074,47.3314,-318.967,0,0
391376,47.3234,-316.401,0,0
392677,47.335,-313.874,0,0
393979,47.358,-311.27,0,0
395280.7,47.4331,-308.66,0,0
396582.325,47.545,-305.98,0,0
397883.95,47.7328,-303.294,0,0
399185.575,47.9463,-300.573,0,0
400006.6,48.125,-298.839,0,0