File: Accelerated corrosion test data/2025-10-11_18-00-03/sample_7.csv
Frequency (Hz),Impedance (ohms),Phase (Radians),Temperature (C),Humidity (%)
10000.0,273.3,-12078.6,0,0
11301.625,246.632,-10685.7,0,0
12603.25,256.998,-9630.13,0,0
13904.875,209.99,-8741.12,0,0
15206.5,194.417,-8005.96,0,0
16508.125,171.432,-7365.71,0,0
17809.75,171.44,-6811.4,0,0
19111.375,180.588,-6367.28,0,0
20413.0,167.768,-5977.38,0,0
21714.625,155.466,-5635.54,0,0
23016.25,130.181,-5312.31,0,0
24317.875,123.104,-5019.55,0,0
25619.5,119.067,-4756.06,0,0
26921.1,123.626,-4510.83,0,0
28222.7,180.854,-4309.25,0,0
29524.4,136.361,-4164.52,0,0
30826,133.536,-3983.2,0,0
32127.6,117.595,-3837.68,0,0
33429.2,101.48,-3686.78,0,0
34730.9,92.7282,-3542.25,0,0
36032.5,88.8617,-3408.61,0,0
37334.1,86.1163,-3285,0,0
38635.7,86.7349,-3168.36,0,0
39937.4,97.0229,-3068.33,0,0
41239,86.683,-2980.6,0,0
42540.6,80.4128,-2884.68,0,0
43842.225,79.5589,-2796.18,0,0
45143.85,80.611,-2718.58,0,0
46445.475,77.4852,-2646.38,0,0
47747.1,71.2433,-2570.14,0,0
49048.725,68.2959,-2500.03,0,0
50350.35,66.367,-2432.9,0,0
51651.975,64.6102,-2369.34,0,0
52953.6,63.9198,-2308.9,0,0
54255.225,62.6291,-2252.21,0,0
55556.85,61.3967,-2197.37,0,0
56858.475,60.5834,-2145.19,0,0
58160.1,59.8706,-2094.69,0,0
59461.7,60.1506,-2047.41,0,0
60763.3,59.5114,-2003.69,0,0
62065,57.3358,-1960.48,0,0
63366.6,56.262,-1917.55,0,0
64668.2,55.2151,-1877.02,0,0
65969.8,55.4379,-1838.56,0,0
67271.5,53.6702,-1801.84,0,0
68573.1,52.5734,-1765.08,0,0
69874.7,52.089,-1729.8,0,0
71176.3,51.8463,-1696.29,0,0
72478,50.6156,-1664.04,0,0
73779.6,49.8481,-1632.27,0,0
75081.2,49.2848,-1601.48,0,0
76382.825,48.7963,-1571.63,0,0
77684.45,48.5999,-1542.83,0,0
78986.075,48.1738,-1514.95,0,0
80287.7,47.9794,-1487.89,0,0
81589.325,47.7268,-1461.55,0,0
82890.95,47.512,-1436.02,0,0
84192.575,47.5392,-1410.8,0,0
85494.2,47.6926,-1386.8,0,0
86795.825,47.7393,-1363.37,0,0
88097.45,47.9947,-1340.62,0,0
89399.075,47.71,-1318.33,0,0
90700.7,47.9908,-1296.12,0,0
92002.3,48.5408,-1274.61,0,0
93303.9,49.0384,-1253.86,0,0
94605.6,50.4977,-1234.01,0,0
95907.2,50.5502,-1215.78,0,0
97208.8,50.0354,-1196.33,0,0
98510.4,50.9611,-1177.04,0,0
99812.1,50.5159,-1158.21,0,0
101114,52.1079,-1139.33,0,0
102415,53.7329,-1121.16,0,0
103717,56.5146,-1104.68,0,0
105019,57.3315,-1089.44,0,0
106320.175,57.0236,-1073.23,0,0
107621.8,58.0997,-1057.06,0,0
108923.425,59.1698,-1041.02,0,0
110225.05,59.5602,-1024.38,0,0
111526.675,62.8184,-1007.6,0,0
112828.3,67.0403,-991.62,0,0
114129.925,72.0665,-977.754,0,0
115431.55,77.6956,-964.919,0,0
116733.175,85.3588,-956.387,0,0
118034.8,88.4998,-950.421,0,0
119336.425,91.0407,-947.409,0,0
120638.05,84.8601,-946.208,0,0
121939.675,75.3836,-935.798,0,0
123241,68.2485,-923.018,0,0
124543,64.2651,-908.302,0,0
125845,60.3554,-894.683,0,0
127146,57.2708,-879.758,0,0
128448,55.7634,-865.036,0,0
129749,54.405,-850.575,0,0
131051,53.3345,-836.143,0,0
132353,52.7509,-820.875,0,0
133654,53.3541,-805.29,0,0
134956,56.2092,-790.37,0,0
136258,61.4852,-777.44,0,0
137559,62.3278,-769.727,0,0
138860.775,60.5072,-757.82,0,0
140162.4,60.9988,-744.492,0,0
141464.025,60.9932,-731.353,0,0
142765.65,62.2441,-717.333,0,0
144067.275,64.7343,-704.456,0,0
145368.9,66.1425,-691.952,0,0
146670.525,67.2661,-678.789,0,0
147972.15,69.1393,-665.519,0,0
149273.775,69.6598,-652.386,0,0
150575.4,70.6205,-636.498,0,0
151877.025,73.3464,-619.166,0,0
153178.65,78.4568,-601.399,0,0
154480,85.3547,-583.549,0,0
155782,94.8348,-566.315,0,0
157084,106.76,-550.905,0,0
158385,119.77,-538.95,0,0
159687,127.898,-530.623,0,0
160988,130.961,-515.4,0,0
162290,141.65,-491.226,0,0
163592,161.27,-467.808,0,0
164893,187.728,-449.817,0,0
166195,217.626,-430.694,0,0
167497,263.462,-418.773,0,0
168798,318.821,-425.74,0,0
170100,365.726,-457.198,0,0
171401.375,397.98,-504.849,0,0
172703.0,410.052,-565.99,0,0
174004.625,381.118,-620.457,0,0
175306.25,339.109,-633.836,0,0
176607.875,320.056,-623.508,0,0
177909.5,330.885,-625.719,0,0
179211.125,327.91,-663.584,0,0
180512.75,297.192,-684.33,0,0
181814.375,256.837,-698.066,0,0
183116.0,214.73,-686.421,0,0
184417.625,186.268,-664.276,0,0
185719.25,167.869,-641.255,0,0
187021,154.632,-614.259,0,0
188322,151.865,-589.831,0,0
189624,146.232,-572.55,0,0
190926,140.191,-550.322,0,0
192227,139.601,-525.686,0,0
193529,142.566,-500.583,0,0
194831,149.433,-476.107,0,0
196132,161.091,-454.591,0,0
197434,174.04,-435.72,0,0
198735,185.778,-417.951,0,0
200037,199.371,-397.845,0,0
201339,217.966,-377.05,0,0
202640.35,243.38,-356.825,0,0
203941.975,274.32,-341.346,0,0
205243.6,311.088,-331.69,0,0
206545.225,351.685,-335.969,0,0
207846.85,379.065,-346.522,0,0
209148.475,412.78,-345.922,0,0
210450.1,464.46,-363.883,0,0
211751.725,498.84,-411.501,0,0
213053.35,511.197,-461.147,0,0
214354.975,507.393,-503.054,0,0
215656.6,494.991,-535.612,0,0
216958.225,485.241,-567.014,0,0
218259.85,460.154,-592.417,0,0
219561,429.201,-606.651,0,0
220863,401.14,-602.053,0,0
222165,386.82,-588.031,0,0
223466,385.023,-576.228,0,0
224768,387.851,-568.582,0,0
226070,400.018,-560.354,0,0
227371,418.304,-565.874,0,0
228673,436.474,-583.088,0,0
229974,445.024,-610.119,0,0
231276,442.719,-644.849,0,0
232578,428.874,-676.027,0,0
233879,400.24,-707.024,0,0
235180.95,356.809,-720.191,0,0
236482.575,322.136,-711.075,0,0
237784.2,295.673,-702.673,0,0
239085.825,271.32,-681.777,0,0
240387.45,268.78,-662.382,0,0
241689.075,262.69,-657.478,0,0
242990.7,249.326,-646.735,0,0
244292.325,242.537,-627.667,0,0
245593.95,249.048,-613.472,0,0
246895.575,253.159,-608.76,0,0
248197.2,254.392,-603.825,0,0
249498.825,257.198,-599.022,0,0
250800,260.909,-596.7,0,0
252102,265.255,-596.889,0,0
253404,267.519,-602.011,0,0
254705,263.728,-608.775,0,0
256007,255.328,-611.827,0,0
257309,245.445,-610.345,0,0
258610,237.374,-603.512,0,0
259912,232.902,-596.121,0,0
261213,230.563,-585.275,0,0
262515,235.924,-573.914,0,0
263817,247.789,-570.537,0,0
265118,255.785,-575.631,0,0
266420,258.929,-579.91,0,0
267721.55,262.755,-586.752,0,0
269023.175,261.577,-594.306,0,0
270324.8,261.888,-598.425,0,0
271626.425,266.847,-607.032,0,0
272928.05,269.157,-630.121,0,0
274229.675,249.508,-657.916,0,0
275531.3,213.323,-670.319,0,0
276832.925,177.245,-661.668,0,0
278134.55,151.82,-639.708,0,0
279436.175,140.599,-615.829,0,0
280737.8,137.704,-595.489,0,0
282039.425,137.382,-582.492,0,0
283341,133.884,-568.961,0,0
284643,134.818,-553.125,0,0
285944,139.969,-540.237,0,0
287246,145.909,-531.775,0,0
288548,149.135,-524.614,0,0
289849,153.018,-515.671,0,0
291151,159.687,-506.828,0,0
292452,167.63,-500.904,0,0
293754,175.63,-496.048,0,0
295056,184.282,-491.416,0,0
296357,195.289,-488.11,0,0
297659,208.825,-487.735,0,0
298960.525,222.322,-491.867,0,0
300262.15,236.045,-499.08,0,0
301563.775,250.657,-511.691,0,0
302865.4,262.218,-535.935,0,0
304167.025,257.079,-565.159,0,0
305468.65,241.276,-586.357,0,0
306770.275,220.459,-599.718,0,0
308071.9,199.189,-604.487,0,0
309373.525,179.752,-603.23,0,0
310675.15,164.369,-597.657,0,0
311976.775,152.718,-591.411,0,0
313278.4,142.643,-584.898,0,0
314580,133.784,-577.337,0,0
315882,127.614,-568.743,0,0
317183,123.863,-561.378,0,0
318485,120.605,-555.087,0,0
319787,118.301,-549.086,0,0
321088,116.8,-544.428,0,0
322390,115.054,-540.963,0,0
323691,112.4,-538.004,0,0
324993,109.42,-534.271,0,0
326295,107.375,-530.713,0,0
327596,105.065,-528.014,0,0
328898,102.118,-525.403,0,0
330200,98.9803,-522.574,0,0
331501.125,95.6496,-519.831,0,0
332802.75,91.5858,-517.189,0,0
334104.375,86.6892,-513.56,0,0
335406.0,82.075,-508.837,0,0
336707.625,77.7541,-503.106,0,0
338009.25,74.3465,-496.73,0,0
339310.875,71.8792,-490.163,0,0
340612.5,69.9871,-483.65,0,0
341914.125,68.7979,-477,0,0
343215.75,68.4623,-470.488,0,0
344517.375,68.9683,-464.497,0,0
345819.0,69.7843,-459.394,0,0
347121,70.5374,-455.202,0,0
348422,70.4656,-451.332,0,0
349724,70.0089,-446.858,0,0
351025,69.5818,-441.901,0,0
352327,70.2745,-436.256,0,0
353629,71.9755,-431.38,0,0
354930,74.0206,-427.326,0,0
356232,75.9705,-424.76,0,0
357534,76.1849,-422.556,0,0
358835,75.5276,-419.091,0,0
360137,75.4764,-414.408,0,0
361438,76.6747,-409.38,0,0
362740.1,78.8333,-404.968,0,0
364041.725,81.2232,-401.189,0,0
365343.35,84.1204,-397.948,0,0
366644.975,86.9065,-395.893,0,0
367946.6,89.1198,-394.202,0,0
369248.225,91.1906,-393.009,0,0
370549.85,92.1969,-392.91,0,0
371851.475,90.9897,-391.756,0,0
373153.1,90.1,-388.259,0,0
374454.725,90.6848,-384.304,0,0
375756.35,92.0744,-380.604,0,0
377057.975,93.5658,-377.488,0,0
378359.6,95.2137,-373.845,0,0
379661,97.7197,-370.423,0,0
380963,100.442,-367.693,0,0
382264,102.95,-364.982,0,0
383566,106.089,-362.441,0,0
384868,109.364,-360.477,0,0
386169,112.222,-358.792,0,0
387471,115.192,-356.972,0,0
388773,118.269,-354.707,0,0
390074,122.92,-352.764,0,0
391376,127.439,-352.277,0,0
392677,131.618,-351.877,0,0
393979,135.93,-351.638,0,0
395280.7,141.071,-351.309,0,0
396582.325,147.769,-352.148,0,0
397883.95,155.137,-355.841,0,0
399185.575,161.312,-362.647,0,0
400006.6,163.7,-368.409,0,0