File: Accelerated corrosion test data/2025-10-11_18-00-03/sample_4.csv
Frequency (Hz),Impedance (ohms),Phase (Radians),Temperature (C),Humidity (%)
10000.0,262.313,-11854.8,0,0
11301.625,233.394,-10502.9,0,0
12603.25,212.043,-9422.31,0,0
13904.875,192.64,-8543.61,0,0
15206.5,180.225,-7819.69,0,0
16508.125,182.525,-7205.44,0,0
17809.75,155.006,-6699.23,0,0
19111.375,144.565,-6243.46,0,0
20413.0,140.119,-5843.6,0,0
21714.625,145.071,-5499.33,0,0
23016.25,124.933,-5199.35,0,0
24317.875,115.967,-4915.25,0,0
25619.5,111.956,-4662.52,0,0
26921.1,106.386,-4432.91,0,0
28222.7,121.301,-4229.83,0,0
29524.4,111.83,-4050.87,0,0
30826,98.1805,-3879.59,0,0
32127.6,99.2399,-3719.54,0,0
33429.2,89.6901,-3579.23,0,0
34730.9,84.7218,-3440.74,0,0
36032.5,81.6394,-3313.63,0,0
37334.1,79.6289,-3194.76,0,0
38635.7,76.7701,-3083.61,0,0
39937.4,76.7561,-2977.86,0,0
41239,80.0132,-2883.68,0,0
42540.6,78.3686,-2795.71,0,0
43842.225,73.4798,-2712.66,0,0
45143.85,71.1394,-2631.36,0,0
46445.475,70.1416,-2554.16,0,0
47747.1,69.8526,-2484.74,0,0
49048.725,66.0032,-2415.6,0,0
50350.35,64.3318,-2348.22,0,0
51651.975,63.7194,-2283.67,0,0
52953.6,65.3633,-2220.89,0,0
54255.225,73.6051,-2164.58,0,0
55556.85,71.8487,-2121.56,0,0
56858.475,65.5185,-2067.79,0,0
58160.1,66.4805,-2015.56,0,0
59461.7,70.5665,-1965.17,0,0
60763.3,79.4771,-1926.99,0,0
62065,69.8707,-1893.98,0,0
63366.6,64.1407,-1848.76,0,0
64668.2,64.5858,-1805.43,0,0
65969.8,66.3325,-1764.78,0,0
67271.5,70.337,-1729,0,0
68573.1,73.5119,-1700.17,0,0
69874.7,66.0675,-1669.88,0,0
71176.3,64.5114,-1635.71,0,0
72478,59.189,-1604.52,0,0
73779.6,57.7272,-1568.08,0,0
75081.2,59.6663,-1535.42,0,0
76382.825,62.1492,-1506.51,0,0
77684.45,64.8152,-1479.03,0,0
78986.075,63.6331,-1456.48,0,0
80287.7,60.6405,-1429.65,0,0
81589.325,59.9669,-1403.65,0,0
82890.95,58.8097,-1378.54,0,0
84192.575,57.6766,-1353.72,0,0
85494.2,56.8975,-1329.4,0,0
86795.825,56.2993,-1305.95,0,0
88097.45,54.8747,-1283.41,0,0
89399.075,53.4282,-1259.17,0,0
90700.7,53.2145,-1236.02,0,0
92002.3,53.5389,-1213.01,0,0
93303.9,54.7615,-1192.27,0,0
94605.6,53.3602,-1171.81,0,0
95907.2,52.9178,-1149.3,0,0
97208.8,53.8215,-1127.61,0,0
98510.4,55.1554,-1106.16,0,0
99812.1,57.7839,-1085.49,0,0
101114,62.1885,-1067.12,0,0
102415,61.408,-1052.85,0,0
103717,58.3519,-1030.09,0,0
105019,62.2606,-1006.49,0,0
106320.175,68.9162,-986.179,0,0
107621.8,75.7938,-968.459,0,0
108923.425,84.1647,-952.026,0,0
110225.05,92.2389,-939.592,0,0
111526.675,98.4534,-929.107,0,0
112828.3,103.191,-919.412,0,0
114129.925,106.364,-910.884,0,0
115431.55,107.968,-902.717,0,0
116733.175,107.261,-894.327,0,0
118034.8,104.753,-883.341,0,0
119336.425,105.677,-869.084,0,0
120638.05,110.702,-863.792,0,0
121939.675,103.979,-857.334,0,0
123241,99.2634,-844.967,0,0
124543,96.1165,-832.375,0,0
125845,93.9254,-819.971,0,0
127146,90.5021,-808.686,0,0
128448,85.8583,-796.689,0,0
129749,79.7087,-781.832,0,0
131051,75.1288,-764.145,0,0
132353,72.7191,-745.508,0,0
133654,72.0488,-726.66,0,0
134956,72.8193,-707.835,0,0
136258,75.0673,-689.461,0,0
137559,77.7817,-672.309,0,0
138860.775,79.7324,-654.555,0,0
140162.4,83.0178,-635.602,0,0
141464.025,88.0225,-616.703,0,0
142765.65,93.9707,-598.367,0,0
144067.275,100.722,-580.003,0,0
145368.9,108.585,-561.378,0,0
146670.525,118.13,-542.744,0,0
147972.15,129.145,-524.823,0,0
149273.775,141.839,-506.793,0,0
150575.4,156.964,-489.164,0,0
151877.025,175.835,-473.096,0,0
153178.65,197.918,-461.387,0,0
154480,219.383,-456.496,0,0
155782,236.02,-452.812,0,0
157084,251.101,-450.727,0,0
158385,266.32,-444.787,0,0
159687,287.326,-442.402,0,0
160988,305.145,-450.63,0,0
162290,311.092,-456.459,0,0
163592,316.417,-455.473,0,0
164893,326.364,-449.769,0,0
166195,341.735,-444.113,0,0
167497,367.6,-443.632,0,0
168798,394.022,-460.849,0,0
170100,409.216,-489.815,0,0
171401.375,404.571,-527.309,0,0
172703.0,379.025,-551.369,0,0
174004.625,346.035,-555.728,0,0
175306.25,319.081,-543.429,0,0
176607.875,302.065,-521.574,0,0
177909.5,296.151,-498.174,0,0
179211.125,295.899,-477.533,0,0
180512.75,299.475,-458.795,0,0
181814.375,303.59,-442.017,0,0
183116.0,306.893,-424.481,0,0
184417.625,311.842,-403.319,0,0
185719.25,320.816,-379.493,0,0
187021,334.735,-354.013,0,0
188322,354.248,-327.688,0,0
189624,380.61,-301.148,0,0
190926,415.919,-276.484,0,0
192227,459.466,-257.231,0,0
193529,510.186,-246.208,0,0
194831,564.644,-244.782,0,0
196132,621.628,-251.38,0,0
197434,684.356,-267.453,0,0
198735,751.906,-300.999,0,0
200037,814.574,-359.457,0,0
201339,856.582,-438.239,0,0
202640.35,870.583,-521.798,0,0
203941.975,866.403,-597.418,0,0
205243.6,847.456,-666.899,0,0
206545.225,819.87,-725.179,0,0
207846.85,786.648,-783.914,0,0
209148.475,731.786,-828.836,0,0
210450.1,676.899,-849.486,0,0
211751.725,629.43,-855.931,0,0
213053.35,593.702,-853.113,0,0
214354.975,567.716,-847.978,0,0
215656.6,554.219,-848.528,0,0
216958.225,535.935,-858.682,0,0
218259.85,514.937,-864.857,0,0
219561,494.637,-871.052,0,0
220863,472.317,-878.566,0,0
222165,447.981,-882.973,0,0
223466,423.872,-884.688,0,0
224768,400.245,-885.832,0,0
226070,374.022,-886.711,0,0
227371,345.055,-882.203,0,0
228673,316.618,-871.887,0,0
229974,292.523,-855.363,0,0
231276,274.405,-837.089,0,0
232578,260.812,-819.185,0,0
233879,250.49,-801.75,0,0
235180.95,242.944,-785.803,0,0
236482.575,237.303,-771.856,0,0
237784.2,232.377,-757.911,0,0
239085.825,230.842,-745.432,0,0
240387.45,229.816,-736.398,0,0
241689.075,227.886,-729.464,0,0
242990.7,224.385,-723.863,0,0
244292.325,218.999,-718.128,0,0
245593.95,212.192,-710.319,0,0
246895.575,206.752,-700.487,0,0
248197.2,204.229,-690.482,0,0
249498.825,201.422,-682.518,0,0
250800,198.43,-674.73,0,0
252102,194.232,-667.232,0,0
253404,187.712,-657.409,0,0
254705,183.103,-643.113,0,0
256007,181.249,-626.739,0,0
257309,184.698,-608.13,0,0
258610,193.944,-590.487,0,0
259912,208.802,-575.746,0,0
261213,228.168,-566.907,0,0
262515,248.402,-565.495,0,0
263817,269.03,-569.596,0,0
265118,287.577,-582.277,0,0
266420,298.689,-601.149,0,0
267721.55,301.963,-622.086,0,0
269023.175,298.01,-642.54,0,0
270324.8,284.371,-658.722,0,0
271626.425,272.051,-664.762,0,0
272928.05,262.872,-671.989,0,0
274229.675,250.997,-680.391,0,0
275531.3,233.554,-686.871,0,0
276832.925,212.518,-685.692,0,0
278134.55,193.776,-675.542,0,0
279436.175,183.27,-659.808,0,0
280737.8,181.976,-647.651,0,0
282039.425,180.503,-640.753,0,0
283341,179.281,-633.156,0,0
284643,179.98,-629.653,0,0
285944,177.338,-628.032,0,0
287246,170.769,-624.088,0,0
288548,165.399,-614.589,0,0
289849,166.875,-601.012,0,0
291151,177.135,-592.156,0,0
292452,189.72,-592.692,0,0
293754,198.344,-601.974,0,0
295056,198.298,-615.038,0,0
296357,189.688,-625.581,0,0
297659,177.703,-629.182,0,0
298960.525,167.621,-628.412,0,0
300262.15,159.042,-626.458,0,0
301563.775,150.781,-623.542,0,0
302865.4,143.492,-618.978,0,0
304167.025,137.16,-614.196,0,0
305468.65,131.638,-608.382,0,0
306770.275,127.669,-602.135,0,0
308071.9,125.591,-596.541,0,0
309373.525,123.99,-592.732,0,0
310675.15,121.283,-589.894,0,0
311976.775,117.607,-586.294,0,0
313278.4,114.442,-581.899,0,0
314580,112.305,-577.107,0,0
315882,110.958,-573.21,0,0
317183,109.916,-570.364,0,0
318485,108.33,-568.342,0,0
319787,105.984,-567.246,0,0
321088,101.779,-566.403,0,0
322390,95.57,-564.481,0,0
323691,88.6201,-559.247,0,0
324993,84.0451,-551.914,0,0
326295,81.3706,-545.161,0,0
327596,78.968,-538.654,0,0
328898,77.2353,-531.581,0,0
330200,77.1951,-524.417,0,0
331501.125,78.536,-518.664,0,0
332802.75,79.8012,-514.76,0,0
334104.375,79.9589,-511.916,0,0
335406.0,78.86,-508.867,0,0
336707.625,76.6926,-504.787,0,0
338009.25,75.2421,-499.066,0,0
339310.875,75.0472,-492.829,0,0
340612.5,76.3785,-486.474,0,0
341914.125,79.5458,-480.916,0,0
343215.75,83.997,-477.528,0,0
344517.375,87.6374,-476.935,0,0
345819.0,89.2446,-477.434,0,0
347121,89.0054,-477.939,0,0
348422,87.6233,-477.482,0,0
349724,85.5784,-476.293,0,0
351025,83.4796,-473.844,0,0
352327,81.678,-470.784,0,0
353629,80.5911,-466.869,0,0
354930,80.914,-463.221,0,0
356232,81.2391,-460.894,0,0
357534,80.5833,-458.881,0,0
358835,79.0932,-456.33,0,0
360137,77.8379,-452.455,0,0
361438,77.684,-448.181,0,0
362740.1,78.4235,-444.122,0,0
364041.725,79.4503,-441.093,0,0
365343.35,79.7787,-438.164,0,0
366644.975,79.8829,-434.318,0,0
367946.6,81.3202,-429.683,0,0
369248.225,84.2526,-425.216,0,0
370549.85,88.769,-422.204,0,0
371851.475,93.9784,-421.246,0,0
373153.1,98.5756,-422.917,0,0
374454.725,100.642,-426.339,0,0
375756.35,100.041,-429.137,0,0
377057.975,98.7465,-430.284,0,0
378359.6,97.8108,-430.848,0,0
379661,96.3052,-431.557,0,0
380963,94.5105,-431.298,0,0
382264,93.3077,-430.309,0,0
383566,93.8262,-430.413,0,0
384868,92.4097,-433.215,0,0
386169,87.5914,-434.892,0,0
387471,81.6486,-433.216,0,0
388773,77.6351,-428.776,0,0
390074,76.7948,-424.14,0,0
391376,77.6391,-422.055,0,0
392677,76.8551,-422.669,0,0
393979,72.8631,-422.583,0,0
395280.7,68.2629,-419.929,0,0
396582.325,64.6997,-415.602,0,0
397883.95,62.416,-410.883,0,0
399185.575,60.7187,-406.141,0,0
400006.6,60.0521,-403.017,0,0