File: Accelerated corrosion test data/2025-10-11_18-00-03/sample_1.csv
Frequency (Hz),Impedance (ohms),Phase (Radians),Temperature (C),Humidity (%)
10000.0,237.956,-12183.5,0,0
11301.625,212.186,-10790.3,0,0
12603.25,192.552,-9692.28,0,0
13904.875,179.843,-8771.35,0,0
15206.5,181.067,-8039.13,0,0
16508.125,153.799,-7415.53,0,0
17809.75,144.224,-6880.98,0,0
19111.375,134.362,-6412.82,0,0
20413.0,153.626,-5971.3,0,0
21714.625,136.837,-5655.17,0,0
23016.25,121.863,-5351.95,0,0
24317.875,111.808,-5060.02,0,0
25619.5,104.392,-4796.54,0,0
26921.1,113.056,-4547.91,0,0
28222.7,109.567,-4344.79,0,0
29524.4,106.622,-4178.53,0,0
30826,99.9862,-3992.05,0,0
32127.6,97.1439,-3833.66,0,0
33429.2,88.1667,-3690.95,0,0
34730.9,81.3416,-3549.31,0,0
36032.5,77.3082,-3418.14,0,0
37334.1,74.8279,-3296.14,0,0
38635.7,72.4187,-3182.86,0,0
39937.4,70.7249,-3076.38,0,0
41239,71.6264,-2977.72,0,0
42540.6,70.0759,-2885.57,0,0
43842.225,67.4639,-2799.03,0,0
45143.85,67.9864,-2717.55,0,0
46445.475,65.156,-2641.31,0,0
47747.1,63.3621,-2567.59,0,0
49048.725,61.0675,-2497.69,0,0
50350.35,59.308,-2431.18,0,0
51651.975,58.364,-2367.75,0,0
52953.6,57.3873,-2306.97,0,0
54255.225,56.4837,-2250.02,0,0
55556.85,55.6823,-2194.66,0,0
56858.475,54.7121,-2141.8,0,0
58160.1,54.4021,-2091.29,0,0
59461.7,54.1954,-2043.41,0,0
60763.3,54.3182,-1997.53,0,0
62065,53.0484,-1953.65,0,0
63366.6,52.2831,-1910.18,0,0
64668.2,52.789,-1868.18,0,0
65969.8,54.9116,-1830.34,0,0
67271.5,53.5893,-1794.09,0,0
68573.1,53.1502,-1758.41,0,0
69874.7,52.0796,-1724.62,0,0
71176.3,50.2763,-1690.03,0,0
72478,48.4232,-1656.54,0,0
73779.6,48.0023,-1623.02,0,0
75081.2,48.4396,-1590.87,0,0
76382.825,49.1279,-1559.89,0,0
77684.45,50.143,-1530.65,0,0
78986.075,51.7597,-1503.06,0,0
80287.7,51.1178,-1476.61,0,0
81589.325,50.5373,-1448.85,0,0
82890.95,51.1693,-1421.99,0,0
84192.575,52.7333,-1396,0,0
85494.2,54.9899,-1371.25,0,0
86795.825,56.0314,-1348.32,0,0
88097.45,56.2646,-1325.11,0,0
89399.075,57.9765,-1300.47,0,0
90700.7,61.5246,-1277.35,0,0
92002.3,67.8508,-1256.43,0,0
93303.9,75.0425,-1239.69,0,0
94605.6,73.3761,-1232.37,0,0
95907.2,66.7055,-1213.71,0,0
97208.8,64.5205,-1193.08,0,0
98510.4,64.1058,-1172.37,0,0
99812.1,63.123,-1152.79,0,0
101114,63.3788,-1132.77,0,0
102415,63.1968,-1111.39,0,0
103717,68.2463,-1090.03,0,0
105019,75.1249,-1072.64,0,0
106320.175,81.5685,-1056.51,0,0
107621.8,88.0409,-1044.22,0,0
108923.425,92.5239,-1033.82,0,0
110225.05,93.9062,-1025.88,0,0
111526.675,93.9979,-1013.38,0,0
112828.3,95.6302,-1003.77,0,0
114129.925,94.3803,-995.813,0,0
115431.55,90.6083,-985.821,0,0
116733.175,85.7474,-973.149,0,0
118034.8,81.9979,-958.425,0,0
119336.425,80.6739,-942.801,0,0
120638.05,81.3653,-928.649,0,0
121939.675,80.3699,-916.075,0,0
123241,79.0674,-901.894,0,0
124543,78.8539,-886.784,0,0
125845,79.6902,-872.146,0,0
127146,81.1095,-857.958,0,0
128448,83.1266,-843.642,0,0
129749,85.6373,-829.641,0,0
131051,90.6754,-816.568,0,0
132353,94.745,-806.396,0,0
133654,97.3575,-796.014,0,0
134956,99.6841,-785.622,0,0
136258,102.399,-774.48,0,0
137559,107.191,-764.677,0,0
138860.775,109.21,-758.339,0,0
140162.4,109.239,-749.622,0,0
141464.025,109.136,-739.404,0,0
142765.65,110.004,-728.573,0,0
144067.275,111.142,-717.272,0,0
145368.9,113.847,-706.137,0,0
146670.525,116.31,-696.094,0,0
147972.15,118.603,-686.878,0,0
149273.775,120.942,-676.096,0,0
150575.4,122.535,-668.056,0,0
151877.025,121.41,-656.151,0,0
153178.65,121.661,-641.405,0,0
154480,125.85,-624.705,0,0
155782,133.644,-608.207,0,0
157084,145.564,-593.715,0,0
158385,158.479,-584.287,0,0
159687,168.783,-573.829,0,0
160988,186.91,-563.778,0,0
162290,205.746,-564.458,0,0
163592,217.229,-566.79,0,0
164893,228.702,-569.639,0,0
166195,240.685,-576.117,0,0
167497,245.605,-587.908,0,0
168798,243.263,-599.2,0,0
170100,233.583,-604.496,0,0
171401.375,225.781,-601.424,0,0
172703.0,220.959,-596.869,0,0
174004.625,217.631,-591.105,0,0
175306.25,216.613,-585.167,0,0
176607.875,217.253,-581.21,0,0
177909.5,216.221,-578.388,0,0
179211.125,211.979,-576.696,0,0
180512.75,205.922,-572.59,0,0
181814.375,198.657,-564.327,0,0
183116.0,192.678,-554.172,0,0
184417.625,187.007,-540.222,0,0
185719.25,185.754,-523.298,0,0
187021,187.871,-507.678,0,0
188322,191.645,-493.122,0,0
189624,195.285,-478.85,0,0
190926,200.294,-463.352,0,0
192227,206.208,-446.858,0,0
193529,215.258,-430.034,0,0
194831,225.552,-413.312,0,0
196132,238.756,-395.711,0,0
197434,255.416,-377.533,0,0
198735,276.636,-361.098,0,0
200037,298.746,-347.479,0,0
201339,325.235,-331.123,0,0
202640.35,361.749,-316.856,0,0
203941.975,405.09,-312.526,0,0
205243.6,456.984,-322.136,0,0
206545.225,499.468,-352.427,0,0
207846.85,526.977,-392.008,0,0
209148.475,538.553,-430.936,0,0
210450.1,536.166,-465.057,0,0
211751.725,526.761,-482.238,0,0
213053.35,525.6,-485.909,0,0
214354.975,538.018,-494.469,0,0
215656.6,549.826,-508.132,0,0
216958.225,558.638,-523.914,0,0
218259.85,573.638,-537.106,0,0
219561,590.129,-556.921,0,0
220863,609.265,-584.095,0,0
222165,627.366,-623.24,0,0
223466,631.548,-674.711,0,0
224768,619.923,-724.518,0,0
226070,598.246,-771.353,0,0
227371,565.374,-814.44,0,0
228673,520.217,-846.264,0,0
229974,472.028,-861.436,0,0
231276,428.541,-864.041,0,0
232578,393.133,-859.154,0,0
233879,365.36,-853.574,0,0
235180.95,339.851,-848.753,0,0
236482.575,315.071,-842.822,0,0
237784.2,291.647,-834.514,0,0
239085.825,271.049,-825.06,0,0
240387.45,251.832,-813.904,0,0
241689.075,235.168,-802.418,0,0
242990.7,220.848,-789.935,0,0
244292.325,208.556,-778.339,0,0
245593.95,196.707,-767.233,0,0
246895.575,185.375,-755.558,0,0
248197.2,175.617,-742.81,0,0
249498.825,167.487,-730.253,0,0
250800,160.621,-718.043,0,0
252102,154.374,-705.932,0,0
253404,148.974,-693.408,0,0
254705,145.058,-680.554,0,0
256007,143.205,-668.321,0,0
257309,141.894,-656.785,0,0
258610,141.549,-645.245,0,0
259912,143.535,-633.486,0,0
261213,147.809,-623.807,0,0
262515,153.126,-616.643,0,0
263817,158.691,-611.633,0,0
265118,164.555,-608.739,0,0
266420,170.98,-609.988,0,0
267721.55,172.733,-616.307,0,0
269023.175,167.237,-622.251,0,0
270324.8,157.136,-622.731,0,0
271626.425,147.803,-617.239,0,0
272928.05,141.832,-608.571,0,0
274229.675,139.926,-599.345,0,0
275531.3,140.14,-592.1,0,0
276832.925,141.099,-585.821,0,0
278134.55,143.57,-581.245,0,0
279436.175,145.249,-578.849,0,0
280737.8,145.909,-577.749,0,0
282039.425,144.78,-577.402,0,0
283341,141.532,-576.007,0,0
284643,137.611,-572.836,0,0
285944,134.476,-568.424,0,0
287246,130.897,-563.082,0,0
288548,128.876,-555.218,0,0
289849,130.881,-547.626,0,0
291151,133.733,-543.454,0,0
292452,135.193,-540.77,0,0
293754,134.297,-537.999,0,0
295056,133.083,-531.68,0,0
296357,136.048,-524.035,0,0
297659,141.248,-519.331,0,0
298960.525,146.33,-515.967,0,0
300262.15,151.793,-513.986,0,0
301563.775,157.59,-512.621,0,0
302865.4,164.593,-513.502,0,0
304167.025,170.149,-517.228,0,0
305468.65,174.173,-521.869,0,0
306770.275,177.3,-527.523,0,0
308071.9,178.112,-534.881,0,0
309373.525,176.4,-541.778,0,0
310675.15,173.711,-547.553,0,0
311976.775,169.645,-554.371,0,0
313278.4,162.624,-560.112,0,0
314580,154.125,-562.969,0,0
315882,146.389,-563.902,0,0
317183,138.474,-564.007,0,0
318485,130.511,-562.832,0,0
319787,122.926,-560.431,0,0
321088,115.903,-556.472,0,0
322390,110.211,-551.798,0,0
323691,105.499,-546.362,0,0
324993,102.574,-540.835,0,0
326295,100.813,-536.397,0,0
327596,99.3188,-532.641,0,0
328898,98.0982,-529.813,0,0
330200,96.6747,-527.918,0,0
331501.125,94.2486,-526.456,0,0
332802.75,91.0201,-524.699,0,0
334104.375,87.5127,-522.442,0,0
335406.0,83.7381,-519.705,0,0
336707.625,79.9978,-516.304,0,0
338009.25,76.8306,-512.515,0,0
339310.875,73.8016,-508.521,0,0
340612.5,71.2397,-504.194,0,0
341914.125,68.9736,-500.135,0,0
343215.75,66.8418,-496.046,0,0
344517.375,64.7359,-491.895,0,0
345819.0,62.6744,-487.621,0,0
347121,60.8944,-483.047,0,0
348422,59.5071,-478.335,0,0
349724,58.602,-473.702,0,0
351025,57.8874,-469.154,0,0
352327,57.5467,-464.852,0,0
353629,57.254,-460.781,0,0
354930,56.9325,-456.777,0,0
356232,56.8335,-452.728,0,0
357534,56.9979,-448.864,0,0
358835,57.1512,-445.226,0,0
360137,57.416,-441.619,0,0
361438,57.7603,-438.083,0,0
362740.1,57.9937,-434.73,0,0
364041.725,58.3978,-431.218,0,0
365343.35,58.9608,-427.883,0,0
366644.975,59.3106,-424.61,0,0
367946.6,59.5765,-421.088,0,0
369248.225,60.087,-416.77,0,0
370549.85,61.9987,-412.112,0,0
371851.475,65.1503,-408.353,0,0
373153.1,68.7867,-406.001,0,0
374454.725,72.1642,-404.718,0,0
375756.35,74.8258,-404.447,0,0
377057.975,76.7952,-404.387,0,0
378359.6,78.4651,-404.405,0,0
379661,79.6319,-404.628,0,0
380963,81.0883,-404.737,0,0
382264,82.5804,-406.346,0,0
383566,82.0947,-408.712,0,0
384868,80.127,-410.286,0,0
386169,77.4308,-410.851,0,0
387471,74.2075,-410.321,0,0
388773,71.4791,-408.442,0,0
390074,69.7898,-406.224,0,0
391376,68.483,-404.436,0,0
392677,66.9538,-402.873,0,0
393979,64.9565,-401.263,0,0
395280.7,62.7302,-398.961,0,0
396582.325,60.7485,-395.948,0,0
397883.95,59.342,-392.548,0,0
399185.575,58.2645,-389.243,0,0
400006.6,57.7355,-387.046,0,0