File: Accelerated corrosion test data/2025-10-10_06-00-03/sample_3.csv
Frequency (Hz),Impedance (ohms),Phase (Radians),Temperature (C),Humidity (%)
10000.0,251.387,-11798.1,0,0
11301.625,223.623,-10450.4,0,0
12603.25,202.796,-9378.88,0,0
13904.875,185.267,-8505.84,0,0
15206.5,173.702,-7775.38,0,0
16508.125,161.638,-7180.21,0,0
17809.75,156.052,-6651.32,0,0
19111.375,146.155,-6199.31,0,0
20413.0,158.768,-5798.81,0,0
21714.625,138.665,-5477.31,0,0
23016.25,127.72,-5171.93,0,0
24317.875,118.836,-4892.47,0,0
25619.5,113.288,-4644.67,0,0
26921.1,108.619,-4414.8,0,0
28222.7,103.829,-4207.56,0,0
29524.4,108.492,-4030.22,0,0
30826,101.195,-3858.15,0,0
32127.6,101.425,-3693.54,0,0
33429.2,99.4658,-3568.49,0,0
34730.9,87.627,-3430.97,0,0
36032.5,83.2705,-3303.1,0,0
37334.1,79.9903,-3184.9,0,0
38635.7,77.7688,-3075.15,0,0
39937.4,75.7515,-2972.55,0,0
41239,74.0615,-2875.5,0,0
42540.6,73.0895,-2785.89,0,0
43842.225,71.6479,-2700.22,0,0
45143.85,70.9861,-2620.56,0,0
46445.475,69.656,-2544.95,0,0
47747.1,70.1485,-2472.15,0,0
49048.725,68.3766,-2406.71,0,0
50350.35,66.3926,-2341.51,0,0
51651.975,66.1678,-2278.88,0,0
52953.6,66.4129,-2219,0,0
54255.225,69.1679,-2164.06,0,0
55556.85,66.5667,-2116.65,0,0
56858.475,61.6387,-2063.73,0,0
58160.1,61.0761,-2011.83,0,0
59461.7,61.5621,-1962.56,0,0
60763.3,62.9422,-1915.84,0,0
62065,64.9129,-1871.16,0,0
63366.6,68.6591,-1827.6,0,0
64668.2,77.1187,-1785.74,0,0
65969.8,91.8698,-1759.93,0,0
67271.5,75.9049,-1734.86,0,0
68573.1,76.0902,-1697.18,0,0
69874.7,75.8913,-1668.03,0,0
71176.3,70.701,-1637.59,0,0
72478,69.3294,-1604.84,0,0
73779.6,67.873,-1576.54,0,0
75081.2,64.2806,-1548.39,0,0
76382.825,60.7396,-1519.16,0,0
77684.45,58.1768,-1490.24,0,0
78986.075,55.8389,-1461.77,0,0
80287.7,54.3878,-1433.76,0,0
81589.325,53.3619,-1406.51,0,0
82890.95,52.7604,-1380.03,0,0
84192.575,52.4401,-1354.37,0,0
85494.2,52.3869,-1329.36,0,0
86795.825,52.4482,-1305,0,0
88097.45,53.0414,-1281.06,0,0
89399.075,54.3094,-1257.31,0,0
90700.7,56.6522,-1235.56,0,0
92002.3,59.0263,-1214.67,0,0
93303.9,62.0631,-1195.9,0,0
94605.6,63.1353,-1181.39,0,0
95907.2,57.9603,-1163.8,0,0
97208.8,56.602,-1142.63,0,0
98510.4,56.4867,-1123.12,0,0
99812.1,55.9019,-1104.27,0,0
101114,55.3856,-1084.59,0,0
102415,56.5555,-1064.15,0,0
103717,60.476,-1046.34,0,0
105019,63.8891,-1032.28,0,0
106320.175,63.1698,-1018.79,0,0
107621.8,60.6402,-1003.11,0,0
108923.425,58.8031,-985.497,0,0
110225.05,58.7912,-966.913,0,0
111526.675,61.0272,-949.06,0,0
112828.3,63.2711,-933.039,0,0
114129.925,64.7785,-917.057,0,0
115431.55,66.8421,-900.205,0,0
116733.175,70.5664,-883.635,0,0
118034.8,76.247,-867.738,0,0
119336.425,82.9315,-855.933,0,0
120638.05,88.8211,-849.393,0,0
121939.675,86.225,-841.145,0,0
123241,86.5637,-827.799,0,0
124543,88.1419,-816.433,0,0
125845,89.4352,-806.103,0,0
127146,88.8894,-796.382,0,0
128448,87.2588,-785.617,0,0
129749,85.6377,-772.58,0,0
131051,86.6533,-759.575,0,0
132353,86.0915,-748.539,0,0
133654,85.4845,-736.546,0,0
134956,84.0429,-724.06,0,0
136258,82.6596,-710.566,0,0
137559,82.4968,-695.475,0,0
138860.775,83.8789,-682.059,0,0
140162.4,82.937,-668.684,0,0
141464.025,82.7859,-654.471,0,0
142765.65,82.0026,-638.65,0,0
144067.275,82.3004,-621.525,0,0
145368.9,83.8925,-603.605,0,0
146670.525,86.4879,-584.817,0,0
147972.15,90.768,-565.007,0,0
149273.775,97.1992,-544.875,0,0
150575.4,107.389,-524.426,0,0
151877.025,119.978,-507.656,0,0
153178.65,132.753,-493.66,0,0
154480,142.976,-481.545,0,0
155782,151.153,-465.909,0,0
157084,162.575,-448.371,0,0
158385,179.331,-436.363,0,0
159687,184.267,-422.712,0,0
160988,199.28,-394.151,0,0
162290,224.965,-369.033,0,0
163592,260.558,-348.788,0,0
164893,308.045,-336.6,0,0
166195,360.387,-348.816,0,0
167497,399.146,-380.991,0,0
168798,421.222,-416.233,0,0
170100,423.134,-457.543,0,0
171401.375,408.983,-475.371,0,0
172703.0,403.301,-480.052,0,0
174004.625,411.457,-487.136,0,0
175306.25,415.798,-505.86,0,0
176607.875,409.495,-524.732,0,0
177909.5,388.975,-542.233,0,0
179211.125,365.127,-535.49,0,0
180512.75,359.544,-521.596,0,0
181814.375,364.146,-517.179,0,0
183116.0,357.535,-524.392,0,0
184417.625,342.559,-522.231,0,0
185719.25,328.744,-509.696,0,0
187021,322.377,-487.085,0,0
188322,328.199,-467.26,0,0
189624,333.71,-452.957,0,0
190926,343.397,-438.441,0,0
192227,352.602,-425.003,0,0
193529,363.326,-407.23,0,0
194831,386.021,-388.839,0,0
196132,418.774,-384.316,0,0
197434,440.778,-396.595,0,0
198735,453.675,-401.483,0,0
200037,465.453,-404.687,0,0
201339,471.119,-402.168,0,0
202640.35,488.858,-392.909,0,0
203941.975,518.406,-390.851,0,0
205243.6,547.511,-402.68,0,0
206545.225,561.979,-420.3,0,0
207846.85,578.265,-420.367,0,0
209148.475,609.748,-427.816,0,0
210450.1,643.022,-448.773,0,0
211751.725,670.874,-480.225,0,0
213053.35,692.009,-515.498,0,0
214354.975,706.947,-557.492,0,0
215656.6,715.343,-602.688,0,0
216958.225,712.38,-650.813,0,0
218259.85,698.757,-693.695,0,0
219561,679.865,-730.994,0,0
220863,660.926,-769.203,0,0
222165,630.266,-806.375,0,0
223466,587.065,-832.937,0,0
224768,543.666,-836.739,0,0
226070,520.501,-832.451,0,0
227371,504.529,-840.866,0,0
228673,480.226,-853.786,0,0
229974,451.071,-860.004,0,0
231276,423.06,-861.633,0,0
232578,397.436,-859.624,0,0
233879,373.49,-856.466,0,0
235180.95,350.495,-852.216,0,0
236482.575,326.775,-847.457,0,0
237784.2,302.781,-839.328,0,0
239085.825,278.72,-825.934,0,0
240387.45,260.832,-808.047,0,0
241689.075,246.821,-790.809,0,0
242990.7,237.963,-772.542,0,0
244292.325,232.647,-757.51,0,0
245593.95,227.879,-745.55,0,0
246895.575,222.515,-733.816,0,0
248197.2,218.213,-721.817,0,0
249498.825,217.364,-710.537,0,0
250800,216.348,-704.368,0,0
252102,210.661,-698.839,0,0
253404,202.23,-689.027,0,0
254705,196.859,-674.028,0,0
256007,196.837,-657.048,0,0
257309,204.524,-642.085,0,0
258610,213.398,-633.892,0,0
259912,224.122,-625.871,0,0
261213,239.442,-625.856,0,0
262515,250.472,-637.411,0,0
263817,250.049,-651.882,0,0
265118,240.658,-663.561,0,0
266420,226.14,-667.577,0,0
267721.55,211.909,-663.853,0,0
269023.175,202.248,-654.998,0,0
270324.8,196.772,-646.162,0,0
271626.425,194.247,-636.817,0,0
272928.05,194.039,-629.792,0,0
274229.675,192.89,-622.182,0,0
275531.3,195.808,-613.586,0,0
276832.925,203.233,-608.394,0,0
278134.55,211.179,-609.985,0,0
279436.175,215.176,-616.332,0,0
280737.8,213.305,-624.002,0,0
282039.425,207.357,-629.376,0,0
283341,199.046,-631.684,0,0
284643,190.201,-630.805,0,0
285944,182.015,-626.795,0,0
287246,176.371,-620.231,0,0
288548,174.897,-613.71,0,0
289849,174.584,-610.586,0,0
291151,172.848,-608.6,0,0
292452,169.483,-606.215,0,0
293754,167.278,-601.068,0,0
295056,168.779,-596.933,0,0
296357,171.219,-596.706,0,0
297659,171.155,-599.336,0,0
298960.525,167.768,-602.232,0,0
300262.15,162.627,-603.652,0,0
301563.775,156.445,-603.719,0,0
302865.4,149.747,-601.918,0,0
304167.025,143.684,-598.814,0,0
305468.65,138.187,-594.494,0,0
306770.275,133.975,-589.203,0,0
308071.9,131.685,-584.272,0,0
309373.525,129.938,-580.895,0,0
310675.15,127.301,-578.436,0,0
311976.775,123.542,-575.72,0,0
313278.4,118.913,-571.603,0,0
314580,115.35,-565.679,0,0
315882,113.894,-558.937,0,0
317183,114.667,-553.691,0,0
318485,115.334,-550.387,0,0
319787,115.21,-547.581,0,0
321088,115.238,-544.68,0,0
322390,116.227,-542.345,0,0
323691,116.965,-542.367,0,0
324993,115.688,-543.207,0,0
326295,112.628,-543.873,0,0
327596,108.333,-543.33,0,0
328898,103.986,-541.453,0,0
330200,99.7822,-538.892,0,0
331501.125,95.6781,-536.115,0,0
332802.75,91.2413,-532.557,0,0
334104.375,86.8411,-528.236,0,0
335406.0,83.0308,-522.798,0,0
336707.625,80.2606,-516.768,0,0
338009.25,78.2308,-510.717,0,0
339310.875,76.8969,-504.315,0,0
340612.5,76.8702,-497.571,0,0
341914.125,78.7043,-491.601,0,0
343215.75,81.2933,-487.763,0,0
344517.375,83.1312,-485.546,0,0
345819.0,83.4298,-483.978,0,0
347121,82.9571,-481.681,0,0
348422,82.3616,-479.055,0,0
349724,81.9807,-475.7,0,0
351025,82.7688,-472.168,0,0
352327,84.3844,-470.123,0,0
353629,84.7433,-469.803,0,0
354930,83.2105,-468.924,0,0
356232,81.5497,-466.83,0,0
357534,79.902,-464.174,0,0
358835,78.6676,-460.724,0,0
360137,78.4308,-457.231,0,0
361438,78.4618,-454.361,0,0
362740.1,78.293,-451.466,0,0
364041.725,78.6799,-448.227,0,0
365343.35,80.2536,-446.118,0,0
366644.975,80.7034,-445.916,0,0
367946.6,79.027,-445.273,0,0
369248.225,76.4955,-442.563,0,0
370549.85,76.0149,-438.033,0,0
371851.475,77.8148,-435.329,0,0
373153.1,78.2983,-434.993,0,0
374454.725,76.5378,-433.928,0,0
375756.35,74.6976,-431.301,0,0
377057.975,73.8035,-427.517,0,0
378359.6,74.1994,-424.028,0,0
379661,75.1523,-421.3,0,0
380963,76.0758,-419.74,0,0
382264,76.2266,-418.313,0,0
383566,76.0043,-417.09,0,0
384868,75.134,-415.757,0,0
386169,73.7909,-413.705,0,0
387471,72.6706,-411.121,0,0
388773,71.5838,-407.962,0,0
390074,71.1896,-404.125,0,0
391376,71.7794,-400.135,0,0
392677,73.4565,-396.506,0,0
393979,75.9749,-393.979,0,0
395280.7,78.3717,-392.684,0,0
396582.325,80.2292,-392.334,0,0
397883.95,81.355,-392.665,0,0
399185.575,81.262,-393.289,0,0
400006.6,80.6882,-393.344,0,0