File: Accelerated corrosion test data/2025-10-10_06-00-03/sample_4.csv
Frequency (Hz),Impedance (ohms),Phase (Radians),Temperature (C),Humidity (%)
10000.0,263.753,-11871.3,0,0
11301.625,234.547,-10517.1,0,0
12603.25,212.905,-9435.85,0,0
13904.875,192.711,-8555.48,0,0
15206.5,181.714,-7831.41,0,0
16508.125,186.017,-7215.01,0,0
17809.75,156.313,-6708.24,0,0
19111.375,145.505,-6251.91,0,0
20413.0,141.023,-5851.74,0,0
21714.625,145.484,-5506.58,0,0
23016.25,125.053,-5206.8,0,0
24317.875,116.51,-4922.08,0,0
25619.5,112.23,-4668.59,0,0
26921.1,107.082,-4439.41,0,0
28222.7,120.005,-4235.3,0,0
29524.4,113.218,-4056.58,0,0
30826,98.7287,-3885.27,0,0
32127.6,99.7532,-3725.12,0,0
33429.2,89.925,-3584.31,0,0
34730.9,84.9409,-3445.94,0,0
36032.5,81.763,-3318.35,0,0
37334.1,79.8564,-3199.75,0,0
38635.7,77.3181,-3087.79,0,0
39937.4,76.8973,-2982.26,0,0
41239,80.3238,-2887.62,0,0
42540.6,78.9468,-2799.86,0,0
43842.225,74.1839,-2716.48,0,0
45143.85,71.4142,-2635.62,0,0
46445.475,70.4597,-2558,0,0
47747.1,69.9605,-2488.51,0,0
49048.725,66.0583,-2419.31,0,0
50350.35,64.6303,-2351.88,0,0
51651.975,63.9119,-2287.21,0,0
52953.6,65.6046,-2224.36,0,0
54255.225,73.6701,-2167.93,0,0
55556.85,71.9952,-2124.96,0,0
56858.475,65.8243,-2071.02,0,0
58160.1,66.7447,-2018.54,0,0
59461.7,70.7099,-1968.41,0,0
60763.3,79.864,-1930.04,0,0
62065,69.9521,-1896.82,0,0
63366.6,64.2147,-1851.66,0,0
64668.2,64.5625,-1808.19,0,0
65969.8,66.5435,-1767.78,0,0
67271.5,70.3363,-1731.61,0,0
68573.1,73.7815,-1702.34,0,0
69874.7,66.4724,-1672.69,0,0
71176.3,64.7458,-1638.38,0,0
72478,59.2443,-1607.2,0,0
73779.6,57.8005,-1570.53,0,0
75081.2,59.7792,-1537.73,0,0
76382.825,62.2215,-1508.88,0,0
77684.45,65.0019,-1481.13,0,0
78986.075,63.9488,-1458.72,0,0
80287.7,60.8728,-1431.91,0,0
81589.325,60.3632,-1405.83,0,0
82890.95,59.1044,-1380.87,0,0
84192.575,57.8925,-1356.02,0,0
85494.2,57.0122,-1331.76,0,0
86795.825,56.375,-1308.11,0,0
88097.45,55.0163,-1285.64,0,0
89399.075,53.4595,-1261.35,0,0
90700.7,53.3685,-1238.25,0,0
92002.3,53.6744,-1215.14,0,0
93303.9,54.9845,-1194.38,0,0
94605.6,53.5569,-1174.07,0,0
95907.2,52.9753,-1151.64,0,0
97208.8,53.7476,-1129.94,0,0
98510.4,55.007,-1108.53,0,0
99812.1,57.4656,-1087.88,0,0
101114,61.5891,-1069.12,0,0
102415,61.0454,-1054.68,0,0
103717,57.9981,-1032.18,0,0
105019,61.6302,-1008.63,0,0
106320.175,68.0449,-988.16,0,0
107621.8,74.7475,-970.168,0,0
108923.425,82.9369,-953.32,0,0
110225.05,91.0399,-940.497,0,0
111526.675,97.2613,-929.481,0,0
112828.3,102.57,-919.379,0,0
114129.925,106.278,-910.617,0,0
115431.55,108.369,-902.461,0,0
116733.175,108.149,-894.166,0,0
118034.8,106.12,-883.515,0,0
119336.425,107.186,-869.76,0,0
120638.05,112.384,-864.723,0,0
121939.675,105.49,-858.619,0,0
123241,100.669,-846.42,0,0
124543,97.5708,-833.877,0,0
125845,95.506,-821.603,0,0
127146,92.3371,-810.851,0,0
128448,87.4167,-799.229,0,0
129749,80.8051,-784.771,0,0
131051,75.7933,-767.141,0,0
132353,73.0529,-748.409,0,0
133654,72.1618,-729.406,0,0
134956,72.7561,-710.519,0,0
136258,74.8148,-692.04,0,0
137559,77.5252,-674.703,0,0
138860.775,79.455,-656.929,0,0
140162.4,82.6765,-637.938,0,0
141464.025,87.7023,-618.956,0,0
142765.65,93.6333,-600.76,0,0
144067.275,100.272,-582.56,0,0
145368.9,107.873,-564.008,0,0
146670.525,117.085,-545.287,0,0
147972.15,127.948,-527.265,0,0
149273.775,140.413,-509.086,0,0
150575.4,155.162,-491.392,0,0
151877.025,173.742,-474.972,0,0
153178.65,195.771,-462.603,0,0
154480,217.53,-457.277,0,0
155782,234.564,-453.186,0,0
157084,250.157,-451.667,0,0
158385,264.917,-446.271,0,0
159687,285.055,-443.593,0,0
160988,303.46,-450.868,0,0
162290,309.979,-457.236,0,0
163592,314.585,-456.637,0,0
164893,323.834,-450.553,0,0
166195,338.365,-443.874,0,0
167497,364.179,-441.818,0,0
168798,392.134,-457.552,0,0
170100,409.037,-485.303,0,0
171401.375,407.161,-523.668,0,0
172703.0,383.059,-549.91,0,0
174004.625,349.861,-556.479,0,0
175306.25,321.956,-545.778,0,0
176607.875,303.437,-524.527,0,0
177909.5,296.47,-500.875,0,0
179211.125,295.697,-479.961,0,0
180512.75,299.12,-460.956,0,0
181814.375,303.4,-444.278,0,0
183116.0,306.522,-427.454,0,0
184417.625,310.702,-406.942,0,0
185719.25,318.462,-383.596,0,0
187021,330.945,-358.263,0,0
188322,348.488,-331.648,0,0
189624,372.688,-304.021,0,0
190926,405.827,-277.313,0,0
192227,447.815,-254.969,0,0
193529,497.808,-239.973,0,0
194831,552.93,-234.01,0,0
196132,612.012,-236.056,0,0
197434,678.346,-247.477,0,0
198735,751.939,-276.76,0,0
200037,823.852,-333.591,0,0
201339,875.45,-415.476,0,0
202640.35,896.934,-506.344,0,0
203941.975,895.709,-591.086,0,0
205243.6,876.585,-669.764,0,0
206545.225,845.262,-735.628,0,0
207846.85,806.896,-799.608,0,0
209148.475,746.3,-847.185,0,0
210450.1,686.058,-868.287,0,0
211751.725,634.734,-874.292,0,0
213053.35,595.376,-870.918,0,0
214354.975,566.468,-864.138,0,0
215656.6,550.618,-863.236,0,0
216958.225,530.33,-871.46,0,0
218259.85,507.585,-875.465,0,0
219561,486.178,-879.301,0,0
220863,463.641,-883.77,0,0
222165,440.01,-885.726,0,0
223466,417.511,-885.578,0,0
224768,395.886,-885.679,0,0
226070,371.378,-886.729,0,0
227371,343.667,-882.998,0,0
228673,315.675,-873.896,0,0
229974,291.28,-858.224,0,0
231276,272.799,-840.336,0,0
232578,258.66,-822.761,0,0
233879,247.772,-805.535,0,0
235180.95,239.346,-789.404,0,0
236482.575,232.922,-775.202,0,0
237784.2,227.321,-760.41,0,0
239085.825,225.404,-746.973,0,0
240387.45,224.417,-736.818,0,0
241689.075,222.828,-729.026,0,0
242990.7,219.99,-722.804,0,0
244292.325,215.322,-716.917,0,0
245593.95,208.762,-709.281,0,0
246895.575,203.252,-699.308,0,0
248197.2,200.566,-688.827,0,0
249498.825,198.252,-680.197,0,0
250800,195.848,-671.852,0,0
252102,192.584,-664.371,0,0
253404,186.791,-655.024,0,0
254705,182.448,-641.354,0,0
256007,180.587,-625.56,0,0
257309,183.514,-607.478,0,0
258610,191.917,-589.814,0,0
259912,206.136,-574.52,0,0
261213,225.304,-564.711,0,0
262515,245.619,-562.557,0,0
263817,266.366,-565.669,0,0
265118,285.028,-577.384,0,0
266420,298.49,-594.443,0,0
267721.55,303.794,-616.105,0,0
269023.175,301.372,-637.47,0,0
270324.8,288.332,-655.137,0,0
271626.425,275.947,-662.33,0,0
272928.05,266.878,-670.278,0,0
274229.675,254.919,-679.227,0,0
275531.3,237.499,-686.435,0,0
276832.925,216.021,-685.948,0,0
278134.55,196.944,-676.352,0,0
279436.175,185.746,-660.841,0,0
280737.8,183.917,-648.594,0,0
282039.425,182.468,-641.368,0,0
283341,181.528,-633.887,0,0
284643,182.276,-630.977,0,0
285944,179.254,-629.842,0,0
287246,172.04,-626.47,0,0
288548,165.796,-616.969,0,0
289849,166.278,-603.066,0,0
291151,175.824,-593.366,0,0
292452,188.187,-592.672,0,0
293754,197.389,-600.725,0,0
295056,198.552,-613.388,0,0
296357,190.946,-624.239,0,0
297659,179.324,-628.462,0,0
298960.525,169.337,-628.079,0,0
300262.15,160.834,-626.414,0,0
301563.775,152.559,-623.878,0,0
302865.4,145.112,-619.565,0,0
304167.025,138.643,-615.051,0,0
305468.65,132.819,-609.449,0,0
306770.275,128.529,-603.194,0,0
308071.9,126.126,-597.44,0,0
309373.525,124.411,-593.406,0,0
310675.15,121.698,-590.373,0,0
311976.775,118.132,-586.567,0,0
313278.4,115.003,-582.124,0,0
314580,112.928,-577.241,0,0
315882,111.731,-573.292,0,0
317183,110.846,-570.293,0,0
318485,109.489,-568.4,0,0
319787,107.362,-567.282,0,0
321088,103.446,-566.692,0,0
322390,97.3713,-565.199,0,0
323691,90.1173,-560.318,0,0
324993,85.4037,-553.184,0,0
326295,82.5832,-546.508,0,0
327596,79.952,-540.045,0,0
328898,77.9936,-533.063,0,0
330200,77.7,-525.769,0,0
331501.125,78.9879,-519.882,0,0
332802.75,80.2027,-515.957,0,0
334104.375,80.2817,-512.979,0,0
335406.0,79.0595,-509.919,0,0
336707.625,77.0504,-505.901,0,0
338009.25,75.4195,-500.245,0,0
339310.875,75.0889,-493.981,0,0
340612.5,76.2348,-487.581,0,0
341914.125,79.0061,-481.776,0,0
343215.75,83.4381,-477.983,0,0
344517.375,87.2469,-477.008,0,0
345819.0,89.1295,-477.324,0,0
347121,89.2659,-477.757,0,0
348422,88.1259,-477.476,0,0
349724,86.3223,-476.363,0,0
351025,84.1896,-474.228,0,0
352327,82.2886,-471.281,0,0
353629,81.0903,-467.494,0,0
354930,81.2107,-463.831,0,0
356232,81.4158,-461.36,0,0
357534,80.945,-459.311,0,0
358835,79.5342,-456.79,0,0
360137,78.279,-453.015,0,0
361438,77.9391,-448.797,0,0
362740.1,78.5742,-444.695,0,0
364041.725,79.553,-441.517,0,0
365343.35,79.7857,-438.621,0,0
366644.975,79.8107,-434.677,0,0
367946.6,81.0907,-429.974,0,0
369248.225,83.9558,-425.341,0,0
370549.85,88.4914,-421.909,0,0
371851.475,93.7951,-420.6,0,0
373153.1,98.7214,-422.034,0,0
374454.725,101.168,-425.327,0,0
375756.35,101.001,-428.176,0,0
377057.975,99.9292,-429.525,0,0
378359.6,99.12,-430.335,0,0
379661,97.777,-431.089,0,0
380963,96.2586,-431.037,0,0
382264,94.926,-430.278,0,0
383566,95.5443,-430.23,0,0
384868,94.472,-433.224,0,0
386169,89.8235,-435.355,0,0
387471,83.7947,-434.125,0,0
388773,79.4783,-429.922,0,0
390074,78.3761,-425.284,0,0
391376,79.123,-423.224,0,0
392677,78.3277,-423.874,0,0
393979,74.2683,-423.965,0,0
395280.7,69.4823,-421.416,0,0
396582.325,65.7527,-417.11,0,0
397883.95,63.2806,-412.349,0,0
399185.575,61.5174,-407.527,0,0
400006.6,60.7593,-404.304,0,0