File: Accelerated corrosion test data/2025-10-10_06-00-03/sample_2.csv
Frequency (Hz),Impedance (ohms),Phase (Radians),Temperature (C),Humidity (%)
10000.0,232.151,-11407.2,0,0
11301.625,206.116,-10103.5,0,0
12603.25,185.709,-9070.51,0,0
13904.875,186.189,-8227.83,0,0
15206.5,165.736,-7536.89,0,0
16508.125,145.03,-6944.07,0,0
17809.75,134.526,-6437.47,0,0
19111.375,130.104,-5998.85,0,0
20413.0,119.593,-5616.74,0,0
21714.625,128.198,-5287.91,0,0
23016.25,113.467,-4992.45,0,0
24317.875,103.911,-4727.47,0,0
25619.5,98.3288,-4484.33,0,0
26921.1,95.8064,-4266.35,0,0
28222.7,90.9008,-4067.77,0,0
29524.4,94.098,-3883.83,0,0
30826,88.4135,-3729.96,0,0
32127.6,82.8273,-3576.55,0,0
33429.2,80.489,-3438.19,0,0
34730.9,76.3853,-3307.49,0,0
36032.5,73.8168,-3186.58,0,0
37334.1,71.6244,-3073,0,0
38635.7,69.3533,-2968.32,0,0
39937.4,67.4226,-2869.58,0,0
41239,66.4251,-2776.74,0,0
42540.6,65.0087,-2690.27,0,0
43842.225,63.5918,-2608.54,0,0
45143.85,62.5424,-2530.89,0,0
46445.475,61.7132,-2458.79,0,0
47747.1,61.1459,-2389.45,0,0
49048.725,61.0322,-2325.75,0,0
50350.35,58.2821,-2263.71,0,0
51651.975,57.1628,-2204.74,0,0
52953.6,55.4175,-2147.49,0,0
54255.225,54.6642,-2092.95,0,0
55556.85,54.3549,-2041.03,0,0
56858.475,54.2828,-1991.48,0,0
58160.1,54.474,-1944.16,0,0
59461.7,54.98,-1898.3,0,0
60763.3,56.5174,-1855.8,0,0
62065,59.2307,-1817.52,0,0
63366.6,56.009,-1780.9,0,0
64668.2,53.4407,-1742.78,0,0
65969.8,51.0027,-1703.54,0,0
67271.5,51.5574,-1666.37,0,0
68573.1,53.6549,-1632.48,0,0
69874.7,56.2469,-1602.13,0,0
71176.3,52.8924,-1574.1,0,0
72478,48.2722,-1543.75,0,0
73779.6,45.5678,-1510.9,0,0
75081.2,45.5982,-1478.69,0,0
76382.825,47.1778,-1448.3,0,0
77684.45,49.8763,-1420.05,0,0
78986.075,53.3124,-1395.76,0,0
80287.7,52.1593,-1374.39,0,0
81589.325,49.5895,-1349.34,0,0
82890.95,48.4232,-1323.65,0,0
84192.575,49.1513,-1298.91,0,0
85494.2,49.8795,-1275.47,0,0
86795.825,50.9244,-1253.55,0,0
88097.45,51.4761,-1232.33,0,0
89399.075,51.5026,-1210.81,0,0
90700.7,51.7868,-1190.71,0,0
92002.3,53.1189,-1169.64,0,0
93303.9,55.7479,-1150.82,0,0
94605.6,55.7302,-1134.09,0,0
95907.2,54.7723,-1114.56,0,0
97208.8,58.3349,-1097.51,0,0
98510.4,58.0916,-1083.77,0,0
99812.1,53.8948,-1069.71,0,0
101114,50.9118,-1051.88,0,0
102415,47.4631,-1031.72,0,0
103717,46.3919,-1010.95,0,0
105019,49.6533,-990.383,0,0
106320.175,54.6308,-973.489,0,0
107621.8,57.8296,-961.274,0,0
108923.425,56.5985,-949.28,0,0
110225.05,53.3745,-934.146,0,0
111526.675,52.267,-916.514,0,0
112828.3,52.7021,-899.041,0,0
114129.925,54.3868,-881.993,0,0
115431.55,57.0839,-865.635,0,0
116733.175,60.5296,-850.31,0,0
118034.8,64.5312,-836.442,0,0
119336.425,68.1512,-824.504,0,0
120638.05,70.2992,-814.205,0,0
121939.675,69.5172,-802.981,0,0
123241,68.5337,-790.056,0,0
124543,67.931,-776.167,0,0
125845,68.0744,-761.204,0,0
127146,69.667,-745.963,0,0
128448,72.5235,-731.69,0,0
129749,75.2559,-718.629,0,0
131051,77.6798,-705.78,0,0
132353,79.2677,-693.429,0,0
133654,80.3925,-679.582,0,0
134956,81.8957,-665.384,0,0
136258,84.3246,-650.318,0,0
137559,87.4984,-635.168,0,0
138860.775,91.0207,-620.222,0,0
140162.4,94.5497,-604.173,0,0
141464.025,100.126,-585.804,0,0
142765.65,109.572,-568.067,0,0
144067.275,120.737,-553.244,0,0
145368.9,132.053,-538.86,0,0
146670.525,144.719,-525.147,0,0
147972.15,160.33,-511.683,0,0
149273.775,179.956,-499.633,0,0
150575.4,206.308,-496.195,0,0
151877.025,228.121,-507.353,0,0
153178.65,235.01,-521.899,0,0
154480,232.948,-532.289,0,0
155782,228.127,-534.555,0,0
157084,222.524,-533.36,0,0
158385,218.487,-525.634,0,0
159687,219.187,-518.485,0,0
160988,220.021,-512.632,0,0
162290,225.316,-507.269,0,0
163592,223.737,-512.147,0,0
164893,211.414,-508.913,0,0
166195,199.206,-496.525,0,0
167497,191.406,-476.31,0,0
168798,190.141,-453.468,0,0
170100,193.498,-432.41,0,0
171401.375,197.252,-410.228,0,0
172703.0,206.141,-386.493,0,0
174004.625,218.944,-361.691,0,0
175306.25,239.081,-337.354,0,0
176607.875,264.977,-321.424,0,0
177909.5,291.933,-310.045,0,0
179211.125,314.266,-311.344,0,0
180512.75,323.717,-308.805,0,0
181814.375,329.371,-293.412,0,0
183116.0,347.253,-271.272,0,0
184417.625,372.884,-247.876,0,0
185719.25,410.616,-228.054,0,0
187021,451.136,-219.847,0,0
188322,494.288,-213.054,0,0
189624,536.203,-214.461,0,0
190926,581.518,-212.563,0,0
192227,640.025,-214.261,0,0
193529,711.339,-234.184,0,0
194831,777.18,-281.782,0,0
196132,828.53,-344.611,0,0
197434,864.28,-412.287,0,0
198735,893.179,-491.293,0,0
200037,898.356,-574.275,0,0
201339,888.547,-662.062,0,0
202640.35,852.005,-742.576,0,0
203941.975,796.278,-803.527,0,0
205243.6,742.411,-844.959,0,0
206545.225,680.435,-871.879,0,0
207846.85,628.057,-879.334,0,0
209148.475,589.832,-883.441,0,0
210450.1,550.687,-894.574,0,0
211751.725,504.56,-895.938,0,0
213053.35,466.319,-884.719,0,0
214354.975,434.69,-870.504,0,0
215656.6,410.528,-854.811,0,0
216958.225,391.213,-838.414,0,0
218259.85,377.501,-822.238,0,0
219561,368.341,-808.079,0,0
220863,362.203,-796.959,0,0
222165,358.72,-787.119,0,0
223466,358.046,-782.36,0,0
224768,355.28,-781.509,0,0
226070,350.462,-780.322,0,0
227371,348.411,-780.017,0,0
228673,347.042,-784.925,0,0
229974,340.322,-794.978,0,0
231276,326.708,-803.535,0,0
232578,310.308,-808.05,0,0
233879,292.932,-809.303,0,0
235180.95,275.903,-807.857,0,0
236482.575,259.216,-804.782,0,0
237784.2,242.345,-799.843,0,0
239085.825,226.484,-792.343,0,0
240387.45,212.315,-782.782,0,0
241689.075,200.738,-772.713,0,0
242990.7,190.911,-762.55,0,0
244292.325,182.328,-754.056,0,0
245593.95,173.564,-746.441,0,0
246895.575,162.661,-739.604,0,0
248197.2,149.749,-728.938,0,0
249498.825,138.944,-715.342,0,0
250800,130.262,-700.039,0,0
252102,124.564,-683.148,0,0
253404,122.149,-667.03,0,0
254705,121.165,-651.708,0,0
256007,122.009,-636.021,0,0
257309,126.203,-621.449,0,0
258610,131.846,-609.042,0,0
259912,139.009,-597.966,0,0
261213,147.936,-589.476,0,0
262515,157.316,-584.017,0,0
263817,166.289,-581.183,0,0
265118,174.237,-581.375,0,0
266420,178.84,-583.157,0,0
267721.55,182.266,-584.122,0,0
269023.175,183.8,-585.67,0,0
270324.8,183.992,-584.498,0,0
271626.425,186.727,-581.221,0,0
272928.05,192.594,-578.934,0,0
274229.675,202.174,-579.375,0,0
275531.3,213.768,-588.053,0,0
276832.925,217.648,-606.055,0,0
278134.55,209.314,-622.194,0,0
279436.175,196.939,-631.555,0,0
280737.8,183.23,-636.407,0,0
282039.425,170.207,-638.112,0,0
283341,155.155,-636.611,0,0
284643,144.148,-630.321,0,0
285944,132.154,-625.838,0,0
287246,119.117,-614.492,0,0
288548,112.126,-597.727,0,0
289849,114.017,-578.776,0,0
291151,125.814,-566.149,0,0
292452,140.457,-564.913,0,0
293754,146.854,-573.996,0,0
295056,143.612,-577.983,0,0
296357,145.912,-578.029,0,0
297659,146.239,-587.651,0,0
298960.525,137.388,-593.639,0,0
300262.15,128.135,-594.813,0,0
301563.775,119.35,-591.907,0,0
302865.4,115.269,-588.002,0,0
304167.025,111.693,-587.909,0,0
305468.65,104.559,-588.429,0,0
306770.275,95.675,-585.993,0,0
308071.9,87.654,-580.727,0,0
309373.525,81.6064,-574.454,0,0
310675.15,76.6491,-568.38,0,0
311976.775,72.1114,-561.955,0,0
313278.4,68.618,-555.215,0,0
314580,65.9868,-548.966,0,0
315882,63.2949,-542.795,0,0
317183,61.2379,-536.316,0,0
318485,60.0052,-530.086,0,0
319787,59.1998,-524.516,0,0
321088,58.1885,-519.129,0,0
322390,57.2801,-513.598,0,0
323691,56.5283,-507.939,0,0
324993,56.4397,-501.434,0,0
326295,58.4943,-495.018,0,0
327596,61.8125,-491.061,0,0
328898,64.0356,-488.837,0,0
330200,65.702,-487.124,0,0
331501.125,66.6292,-486.395,0,0
332802.75,65.9701,-486.251,0,0
334104.375,63.5093,-485.133,0,0
335406.0,61.02,-482.396,0,0
336707.625,59.0877,-479.054,0,0
338009.25,57.3667,-475.233,0,0
339310.875,56.0492,-471.319,0,0
340612.5,55.0601,-467.003,0,0
341914.125,54.5608,-462.718,0,0
343215.75,54.3909,-458.488,0,0
344517.375,54.6305,-454.104,0,0
345819.0,55.3285,-449.941,0,0
347121,56.4831,-446.118,0,0
348422,57.8058,-442.65,0,0
349724,59.4258,-439.605,0,0
351025,61.1065,-437.071,0,0
352327,62.4698,-435.105,0,0
353629,63.5272,-433.033,0,0
354930,64.6814,-430.952,0,0
356232,65.9332,-429.05,0,0
357534,67.4934,-427.417,0,0
358835,69.2488,-426.292,0,0
360137,70.6727,-426.204,0,0
361438,71.2072,-426.348,0,0
362740.1,71.0911,-426.602,0,0
364041.725,70.331,-426.42,0,0
365343.35,69.3317,-425.964,0,0
366644.975,68.0526,-425.006,0,0
367946.6,67.1737,-423.378,0,0
369248.225,66.937,-421.996,0,0
370549.85,66.6421,-421.471,0,0
371851.475,65.3248,-420.958,0,0
373153.1,64.0122,-419.771,0,0
374454.725,62.9862,-418.642,0,0
375756.35,61.4908,-417.751,0,0
377057.975,59.7887,-416.363,0,0
378359.6,58.2485,-415.112,0,0
379661,55.5951,-413.816,0,0
380963,53.1507,-410.282,0,0
382264,53.0847,-407.518,0,0
383566,51.9822,-406.226,0,0
384868,49.9502,-404.296,0,0
386169,47.8465,-401.523,0,0
387471,46.2828,-398.194,0,0
388773,45.2257,-394.709,0,0
390074,44.8627,-391.216,0,0
391376,45.0329,-388.507,0,0
392677,44.5254,-386.68,0,0
393979,42.9834,-384.296,0,0
395280.7,41.4207,-380.87,0,0
396582.325,40.5894,-376.779,0,0
397883.95,40.581,-372.739,0,0
399185.575,41.0385,-368.997,0,0
400006.6,41.4924,-366.795,0,0