File: Accelerated corrosion test data/2025-10-23_06-00-04/sample_4.csv
Frequency (Hz),Impedance (ohms),Phase (Radians),Temperature (C),Humidity (%)
10000.0,263.202,-11953.3,0,0
11301.625,233.523,-10589.6,0,0
12603.25,213.822,-9499.89,0,0
13904.875,192.946,-8612.54,0,0
15206.5,179.603,-7881.82,0,0
16508.125,192.451,-7282.18,0,0
17809.75,154.966,-6754.79,0,0
19111.375,144.896,-6294.31,0,0
20413.0,140.173,-5890.64,0,0
21714.625,146.387,-5545,0,0
23016.25,124.44,-5242.04,0,0
24317.875,115.615,-4955.6,0,0
25619.5,111.688,-4700.73,0,0
26921.1,106.048,-4468.85,0,0
28222.7,119.223,-4266.13,0,0
29524.4,113.861,-4086.84,0,0
30826,98.6646,-3912.5,0,0
32127.6,100.449,-3750.44,0,0
33429.2,89.3877,-3608.61,0,0
34730.9,84.49,-3469.54,0,0
36032.5,81.4436,-3341.18,0,0
37334.1,78.887,-3221.28,0,0
38635.7,76.6481,-3108.61,0,0
39937.4,76.8214,-3001.92,0,0
41239,80.4961,-2907.26,0,0
42540.6,78.5513,-2818.83,0,0
43842.225,73.4956,-2734.92,0,0
45143.85,71.0113,-2653.12,0,0
46445.475,70.0261,-2575.11,0,0
47747.1,69.6388,-2505.3,0,0
49048.725,65.7326,-2435.55,0,0
50350.35,64.0809,-2367.75,0,0
51651.975,63.379,-2302.91,0,0
52953.6,64.9022,-2239.4,0,0
54255.225,73.102,-2182.3,0,0
55556.85,71.5108,-2139.33,0,0
56858.475,65.1703,-2084.79,0,0
58160.1,66.1243,-2032.33,0,0
59461.7,69.8508,-1981.77,0,0
60763.3,79.9161,-1942.77,0,0
62065,69.4132,-1909.76,0,0
63366.6,63.2306,-1864,0,0
64668.2,63.6563,-1820.21,0,0
65969.8,65.8988,-1779.04,0,0
67271.5,69.5972,-1742.54,0,0
68573.1,73.8986,-1713.16,0,0
69874.7,66.5103,-1683.82,0,0
71176.3,64.2478,-1649.19,0,0
72478,58.6337,-1617.3,0,0
73779.6,57.3485,-1580.91,0,0
75081.2,59.2202,-1547.47,0,0
76382.825,61.6988,-1518.2,0,0
77684.45,64.9763,-1490.2,0,0
78986.075,63.9944,-1467.91,0,0
80287.7,60.9957,-1441.06,0,0
81589.325,60.6415,-1415.03,0,0
82890.95,59.3746,-1390.17,0,0
84192.575,57.9987,-1365.26,0,0
85494.2,56.9341,-1341,0,0
86795.825,55.9669,-1317.21,0,0
88097.45,54.4802,-1294.15,0,0
89399.075,53.2056,-1269.78,0,0
90700.7,53.1293,-1246.6,0,0
92002.3,53.3631,-1223.3,0,0
93303.9,54.8683,-1202.28,0,0
94605.6,53.5486,-1182.47,0,0
95907.2,52.6072,-1160.02,0,0
97208.8,53.0803,-1138.22,0,0
98510.4,54.2668,-1116.57,0,0
99812.1,56.406,-1095.74,0,0
101114,60.1193,-1076.85,0,0
102415,59.5112,-1061.6,0,0
103717,57.1071,-1039.11,0,0
105019,60.1772,-1015.56,0,0
106320.175,66.3787,-994.54,0,0
107621.8,72.8736,-976.145,0,0
108923.425,81.0588,-958.581,0,0
110225.05,89.6605,-945.042,0,0
111526.675,96.0752,-933.794,0,0
112828.3,102.118,-923.207,0,0
114129.925,106.355,-914.344,0,0
115431.55,108.961,-906.227,0,0
116733.175,109.419,-897.785,0,0
118034.8,108.214,-887.539,0,0
119336.425,109.627,-874.45,0,0
120638.05,114.902,-870.273,0,0
121939.675,107.52,-864.371,0,0
123241,102.47,-852.333,0,0
124543,99.5222,-839.135,0,0
125845,98.5661,-827.264,0,0
127146,95.9268,-817.32,0,0
128448,90.6294,-807.843,0,0
129749,82.4288,-793.872,0,0
131051,76.4196,-776.131,0,0
132353,73.0327,-757.17,0,0
133654,71.5368,-738.129,0,0
134956,71.6044,-719.049,0,0
136258,73.1063,-700.369,0,0
137559,75.0986,-682.635,0,0
138860.775,76.9261,-663.988,0,0
140162.4,80.2519,-644.812,0,0
141464.025,85.3166,-625.61,0,0
142765.65,91.3348,-607.297,0,0
144067.275,97.8073,-589.433,0,0
145368.9,104.872,-571.051,0,0
146670.525,113.484,-552.387,0,0
147972.15,123.531,-533.96,0,0
149273.775,135.074,-515.761,0,0
150575.4,149.023,-496.713,0,0
151877.025,166.871,-478.846,0,0
153178.65,189.345,-465.224,0,0
154480,211.853,-459.092,0,0
155782,230.076,-454.862,0,0
157084,246.7,-452.042,0,0
158385,261.448,-448.553,0,0
159687,280.57,-447.375,0,0
160988,295.658,-451.065,0,0
162290,306.651,-456.482,0,0
163592,310.078,-458.798,0,0
164893,314.994,-451.482,0,0
166195,330.086,-438.944,0,0
167497,358.159,-435.873,0,0
168798,387.225,-445.981,0,0
170100,412.137,-473.735,0,0
171401.375,415.279,-513.305,0,0
172703.0,394.623,-546.894,0,0
174004.625,361.048,-558.807,0,0
175306.25,329.242,-552.973,0,0
176607.875,306.865,-532.774,0,0
177909.5,296.217,-508.989,0,0
179211.125,293.972,-485.207,0,0
180512.75,297.644,-465.589,0,0
181814.375,301.948,-449.177,0,0
183116.0,304.546,-433.319,0,0
184417.625,307.87,-413.489,0,0
185719.25,314.558,-392.416,0,0
187021,322.622,-369.058,0,0
188322,335.032,-342.454,0,0
189624,352.935,-313.318,0,0
190926,378.689,-282.636,0,0
192227,414.251,-252.253,0,0
193529,459.853,-226.84,0,0
194831,513.003,-207.986,0,0
196132,574.317,-194.21,0,0
197434,647.64,-189.452,0,0
198735,735.006,-199.465,0,0
200037,833.108,-242.365,0,0
201339,918.538,-323.053,0,0
202640.35,973.085,-426.992,0,0
203941.975,995.827,-544.062,0,0
205243.6,985.65,-654.423,0,0
206545.225,951.7,-756.694,0,0
207846.85,888.791,-844.516,0,0
209148.475,808.859,-902.223,0,0
210450.1,731.765,-927.272,0,0
211751.725,667.316,-934.219,0,0
213053.35,612.867,-931.844,0,0
214354.975,574.747,-918.481,0,0
215656.6,549.893,-915.903,0,0
216958.225,521.38,-915.38,0,0
218259.85,495.467,-914.038,0,0
219561,469.897,-913.906,0,0
220863,442.551,-910.69,0,0
222165,418.467,-904.36,0,0
223466,399.501,-896.136,0,0
224768,382.584,-893.554,0,0
226070,362.059,-892.486,0,0
227371,338.165,-889.762,0,0
228673,312.659,-881.636,0,0
229974,289.82,-868.8,0,0
231276,269.947,-853.446,0,0
232578,254.416,-837.115,0,0
233879,241.02,-820.489,0,0
235180.95,230.949,-804.43,0,0
236482.575,221.417,-788.971,0,0
237784.2,214.495,-772.549,0,0
239085.825,210.543,-757.553,0,0
240387.45,208.14,-744.457,0,0
241689.075,206.901,-733.493,0,0
242990.7,205.159,-724.818,0,0
244292.325,201.606,-717.657,0,0
245593.95,196.318,-709.317,0,0
246895.575,190.919,-699.401,0,0
248197.2,186.855,-687.714,0,0
249498.825,185.124,-675.918,0,0
250800,184.72,-666.18,0,0
252102,182.473,-657.346,0,0
253404,180.037,-646.647,0,0
254705,177.379,-635.267,0,0
256007,175.603,-620.079,0,0
257309,178.068,-602.573,0,0
258610,185.857,-584.542,0,0
259912,199.62,-568.997,0,0
261213,217.319,-557.827,0,0
262515,238.945,-551.494,0,0
263817,261.373,-555.592,0,0
265118,278.148,-563.986,0,0
266420,295.143,-575.109,0,0
267721.55,309.409,-595.621,0,0
269023.175,311.247,-621.929,0,0
270324.8,301.758,-642.3,0,0
271626.425,291.331,-655.99,0,0
272928.05,277.587,-666.715,0,0
274229.675,265.555,-675.008,0,0
275531.3,249.155,-683.003,0,0
276832.925,227.497,-684.974,0,0
278134.55,206.937,-675.726,0,0
279436.175,198.133,-660.854,0,0
280737.8,194.374,-652.336,0,0
282039.425,191.503,-644.088,0,0
283341,191.601,-638.5,0,0
284643,191.017,-637.612,0,0
285944,184.707,-638.443,0,0
287246,175.869,-632.755,0,0
288548,168.829,-623.146,0,0
289849,167.87,-609.854,0,0
291151,175.033,-598.618,0,0
292452,186.543,-595.602,0,0
293754,195.97,-600.721,0,0
295056,199.529,-611.871,0,0
296357,193.774,-622.632,0,0
297659,184.016,-627.674,0,0
298960.525,174.734,-629.037,0,0
300262.15,165.57,-628.628,0,0
301563.775,157.112,-626.109,0,0
302865.4,149.602,-623.006,0,0
304167.025,142.175,-618.719,0,0
305468.65,135.76,-613.438,0,0
306770.275,130.573,-607.179,0,0
308071.9,127.548,-600.949,0,0
309373.525,125.215,-596.648,0,0
310675.15,121.754,-592.556,0,0
311976.775,118.574,-587.589,0,0
313278.4,116.43,-582.403,0,0
314580,115.159,-578.044,0,0
315882,113.769,-574.258,0,0
317183,112.815,-570.968,0,0
318485,111.986,-568.429,0,0
319787,110.553,-567.467,0,0
321088,107.383,-567.137,0,0
322390,102.06,-566.074,0,0
323691,95.4688,-562.386,0,0
324993,90.1652,-556.785,0,0
326295,86.159,-550.392,0,0
327596,83.2312,-544.045,0,0
328898,80.5574,-537.266,0,0
330200,79.5748,-529.86,0,0
331501.125,80.4358,-523.374,0,0
332802.75,82.0466,-519.236,0,0
334104.375,81.9248,-516.527,0,0
335406.0,80.4073,-513.397,0,0
336707.625,78.5213,-509.185,0,0
338009.25,76.7639,-504.191,0,0
339310.875,75.6099,-497.907,0,0
340612.5,76.1008,-491.181,0,0
341914.125,78.5489,-484.973,0,0
343215.75,82.3766,-480.631,0,0
344517.375,86.1025,-478.529,0,0
345819.0,88.5596,-477.97,0,0
347121,89.4956,-478.062,0,0
348422,89.0644,-477.754,0,0
349724,88.0272,-477.031,0,0
351025,86.0336,-475.658,0,0
352327,84.0455,-472.997,0,0
353629,82.855,-469.75,0,0
354930,82.0091,-466.758,0,0
356232,81.2334,-463.458,0,0
357534,81.0517,-460.328,0,0
358835,80.5468,-457.812,0,0
360137,79.4199,-454.84,0,0
361438,78.6982,-450.869,0,0
362740.1,78.6494,-447.169,0,0
364041.725,78.6789,-443.43,0,0
365343.35,78.9411,-439.569,0,0
366644.975,79.2841,-435.449,0,0
367946.6,80.378,-430.49,0,0
369248.225,82.8807,-425.732,0,0
370549.85,87.0118,-421.207,0,0
371851.475,92.9682,-418.817,0,0
373153.1,98.7167,-419.76,0,0
374454.725,101.915,-422.783,0,0
375756.35,102.745,-425.436,0,0
377057.975,102.377,-427.296,0,0
378359.6,101.815,-428.098,0,0
379661,101.399,-429.05,0,0
380963,100.076,-429.622,0,0
382264,99.6558,-429.292,0,0
383566,99.7522,-430.142,0,0
384868,98.9114,-432.86,0,0
386169,94.789,-435.304,0,0
387471,89.1744,-434.881,0,0
388773,84.9778,-431.601,0,0
390074,83.5319,-428.08,0,0
391376,83.1359,-426.796,0,0
392677,81.1065,-426.794,0,0
393979,77.5071,-426.142,0,0
395280.7,73.2423,-423.966,0,0
396582.325,69.3712,-420.585,0,0
397883.95,66.0071,-416.325,0,0
399185.575,63.441,-411.339,0,0
400006.6,62.3801,-407.971,0,0