File: Accelerated corrosion test data/2025-10-23_06-00-04/sample_1.csv
Frequency (Hz),Impedance (ohms),Phase (Radians),Temperature (C),Humidity (%)
10000.0,240.957,-12234.5,0,0
11301.625,214.565,-10837,0,0
12603.25,195.462,-9733.67,0,0
13904.875,182.796,-8807.38,0,0
15206.5,190.788,-8074.61,0,0
16508.125,154.947,-7448.35,0,0
17809.75,145.695,-6910.35,0,0
19111.375,135.707,-6440.59,0,0
20413.0,157.404,-5995.31,0,0
21714.625,135.668,-5677.85,0,0
23016.25,122.133,-5376.72,0,0
24317.875,112.475,-5082.82,0,0
25619.5,104.695,-4817.67,0,0
26921.1,114.738,-4567.01,0,0
28222.7,110.736,-4363.82,0,0
29524.4,107.916,-4198.4,0,0
30826,101.005,-4009.33,0,0
32127.6,97.53,-3852.09,0,0
33429.2,88.9165,-3708.1,0,0
34730.9,81.7761,-3565.17,0,0
36032.5,77.5954,-3434.11,0,0
37334.1,75.1519,-3311.49,0,0
38635.7,72.9253,-3197.7,0,0
39937.4,70.8728,-3090.83,0,0
41239,72.1999,-2991.31,0,0
42540.6,70.8481,-2899.12,0,0
43842.225,67.8417,-2812.11,0,0
45143.85,67.9806,-2730.57,0,0
46445.475,64.8477,-2653.17,0,0
47747.1,64.088,-2579.62,0,0
49048.725,61.7117,-2509.36,0,0
50350.35,59.4756,-2442.73,0,0
51651.975,58.6121,-2379.12,0,0
52953.6,57.6335,-2317.92,0,0
54255.225,56.5436,-2260.88,0,0
55556.85,55.4541,-2205.24,0,0
56858.475,54.7212,-2152.08,0,0
58160.1,54.3017,-2101.24,0,0
59461.7,54.1461,-2053.18,0,0
60763.3,54.2267,-2007.24,0,0
62065,52.9076,-1963.11,0,0
63366.6,52.2969,-1919.48,0,0
64668.2,52.7449,-1877.17,0,0
65969.8,54.865,-1839.29,0,0
67271.5,53.4369,-1802.92,0,0
68573.1,52.8596,-1767.01,0,0
69874.7,52.0892,-1732.83,0,0
71176.3,49.9958,-1698.26,0,0
72478,48.2464,-1664.52,0,0
73779.6,47.8886,-1631.01,0,0
75081.2,48.2173,-1598.74,0,0
76382.825,48.9559,-1567.61,0,0
77684.45,50.0347,-1538.23,0,0
78986.075,51.5806,-1510.57,0,0
80287.7,50.9023,-1484.15,0,0
81589.325,50.1942,-1456.18,0,0
82890.95,50.8214,-1429.36,0,0
84192.575,52.2066,-1403.12,0,0
85494.2,54.3936,-1378.25,0,0
86795.825,55.3452,-1355.02,0,0
88097.45,55.7201,-1331.48,0,0
89399.075,57.7156,-1306.84,0,0
90700.7,60.9651,-1283.47,0,0
92002.3,66.8201,-1262.21,0,0
93303.9,74.5514,-1244.75,0,0
94605.6,73.4717,-1237.71,0,0
95907.2,67.1012,-1219.18,0,0
97208.8,65.1743,-1198.8,0,0
98510.4,64.4505,-1178.49,0,0
99812.1,63.405,-1159.06,0,0
101114,63.0628,-1138.75,0,0
102415,63.4382,-1116.97,0,0
103717,68.2793,-1095.73,0,0
105019,74.8176,-1078.67,0,0
106320.175,80.5434,-1062.42,0,0
107621.8,86.8638,-1049.2,0,0
108923.425,91.213,-1037.84,0,0
110225.05,94.0061,-1029.24,0,0
111526.675,94.0661,-1016.58,0,0
112828.3,97.5654,-1006.71,0,0
114129.925,96.7236,-999.641,0,0
115431.55,93.6768,-990.722,0,0
116733.175,89.0739,-979.426,0,0
118034.8,84.0482,-965.709,0,0
119336.425,81.8166,-950.044,0,0
120638.05,81.9069,-935.77,0,0
121939.675,80.1918,-922.967,0,0
123241,78.8252,-908.039,0,0
124543,78.7686,-893.128,0,0
125845,79.3982,-878.441,0,0
127146,80.4377,-863.845,0,0
128448,82.3138,-849.229,0,0
129749,84.9203,-835.172,0,0
131051,89.3035,-821.797,0,0
132353,93.5907,-810.82,0,0
133654,96.6216,-799.881,0,0
134956,100.054,-789.032,0,0
136258,103.101,-778.4,0,0
137559,108.512,-768.78,0,0
138860.775,111.039,-763.164,0,0
140162.4,110.291,-755.079,0,0
141464.025,109.824,-745.041,0,0
142765.65,110.285,-734.019,0,0
144067.275,112.06,-722.602,0,0
145368.9,114.465,-711.48,0,0
146670.525,117.593,-701.388,0,0
147972.15,119.854,-693.174,0,0
149273.775,121.234,-682.905,0,0
150575.4,122.693,-674.368,0,0
151877.025,121.611,-663.383,0,0
153178.65,121.27,-648.677,0,0
154480,124.653,-632.433,0,0
155782,131.087,-615.576,0,0
157084,142.872,-600.165,0,0
158385,155.067,-590.869,0,0
159687,164.053,-579.085,0,0
160988,181.625,-567.538,0,0
162290,200.864,-566.276,0,0
163592,212.258,-568.009,0,0
164893,225.393,-567.794,0,0
166195,239.508,-573.505,0,0
167497,247.806,-584.085,0,0
168798,248.305,-597.379,0,0
170100,239.677,-605.643,0,0
171401.375,231.271,-604.046,0,0
172703.0,228.046,-599.605,0,0
174004.625,224.994,-597.186,0,0
175306.25,223.351,-593.202,0,0
176607.875,221.665,-591.02,0,0
177909.5,219.364,-587.742,0,0
179211.125,215.202,-586.106,0,0
180512.75,207.626,-583.209,0,0
181814.375,199.546,-574.836,0,0
183116.0,192.836,-563.304,0,0
184417.625,188.27,-549.908,0,0
185719.25,186.406,-534.554,0,0
187021,186.609,-519.51,0,0
188322,190.052,-503.837,0,0
189624,193.639,-490.404,0,0
190926,196.995,-475.185,0,0
192227,202.272,-458.272,0,0
193529,210.765,-440.559,0,0
194831,221.874,-424.201,0,0
196132,234.797,-407.177,0,0
197434,250.995,-391.653,0,0
198735,268.243,-377.473,0,0
200037,286.639,-361.441,0,0
201339,310.489,-345.264,0,0
202640.35,341.94,-328.282,0,0
203941.975,384.016,-317.305,0,0
205243.6,435.293,-322.503,0,0
206545.225,481.56,-346.541,0,0
207846.85,512.647,-381.448,0,0
209148.475,532.902,-420.452,0,0
210450.1,535.106,-461.99,0,0
211751.725,521.623,-482.724,0,0
213053.35,520.371,-485.013,0,0
214354.975,533.065,-494.027,0,0
215656.6,544.701,-509.273,0,0
216958.225,554.027,-526.208,0,0
218259.85,563.545,-544.328,0,0
219561,574.666,-559.964,0,0
220863,592.245,-581.092,0,0
222165,610.446,-615.648,0,0
223466,616.912,-661.449,0,0
224768,609.695,-708.786,0,0
226070,592.745,-753.95,0,0
227371,563.51,-796.23,0,0
228673,524.247,-830.162,0,0
229974,478.427,-849.233,0,0
231276,435.795,-854.713,0,0
232578,399.112,-852.396,0,0
233879,371.179,-845.237,0,0
235180.95,349.45,-841.435,0,0
236482.575,324.87,-839.545,0,0
237784.2,300.589,-833.483,0,0
239085.825,278.368,-824.758,0,0
240387.45,258.928,-814.5,0,0
241689.075,241.721,-803.615,0,0
242990.7,226.149,-791.532,0,0
244292.325,213.952,-779.666,0,0
245593.95,202.287,-769.417,0,0
246895.575,190.378,-758.613,0,0
248197.2,179.823,-746.268,0,0
249498.825,170.866,-733.816,0,0
250800,163.525,-721.261,0,0
252102,157.413,-709.424,0,0
253404,151.467,-697.234,0,0
254705,147.407,-684.107,0,0
256007,145.3,-672.328,0,0
257309,143.418,-660.988,0,0
258610,142.447,-649.165,0,0
259912,144.099,-637.287,0,0
261213,148.103,-627.65,0,0
262515,152.45,-620.283,0,0
263817,157.4,-614.323,0,0
265118,163.546,-610.276,0,0
266420,170.226,-610.139,0,0
267721.55,174.471,-615.189,0,0
269023.175,171.708,-622.833,0,0
270324.8,162.261,-626.599,0,0
271626.425,150.826,-623.574,0,0
272928.05,142.83,-615.202,0,0
274229.675,139.068,-606.11,0,0
275531.3,137.755,-597.839,0,0
276832.925,138.168,-590.625,0,0
278134.55,139.855,-585.188,0,0
279436.175,141.026,-582.028,0,0
280737.8,140.619,-579.293,0,0
282039.425,140.202,-576.705,0,0
283341,137.934,-574.106,0,0
284643,136.378,-569.544,0,0
285944,135.343,-566.242,0,0
287246,132.35,-562.19,0,0
288548,130.571,-554.858,0,0
289849,132.545,-547.745,0,0
291151,135.916,-544.34,0,0
292452,136.858,-542.751,0,0
293754,135.393,-539.566,0,0
295056,134.609,-533.89,0,0
296357,136.548,-527.077,0,0
297659,140.854,-521.749,0,0
298960.525,145.832,-518.385,0,0
300262.15,150.394,-515.644,0,0
301563.775,156.712,-513.479,0,0
302865.4,163.715,-514.882,0,0
304167.025,168.733,-517.702,0,0
305468.65,172.802,-521.575,0,0
306770.275,176.495,-526.46,0,0
308071.9,178.372,-533.675,0,0
309373.525,177.082,-540.928,0,0
310675.15,174.239,-547.132,0,0
311976.775,169.746,-553.069,0,0
313278.4,163.711,-557.359,0,0
314580,157.621,-560.036,0,0
315882,151.577,-562.458,0,0
317183,144.112,-564.567,0,0
318485,135.824,-564.946,0,0
319787,127.53,-563.424,0,0
321088,119.584,-560.469,0,0
322390,112.348,-555.76,0,0
323691,107.204,-549.443,0,0
324993,104.31,-543.785,0,0
326295,102.759,-538.923,0,0
327596,101.783,-535.612,0,0
328898,100.35,-533.443,0,0
330200,98.307,-531.752,0,0
331501.125,95.364,-530.253,0,0
332802.75,91.8926,-528.406,0,0
334104.375,88.0684,-526.079,0,0
335406.0,84.0256,-522.999,0,0
336707.625,80.4179,-519.332,0,0
338009.25,77.1422,-515.318,0,0
339310.875,74.4381,-511.198,0,0
340612.5,72.0124,-506.968,0,0
341914.125,69.9058,-503.012,0,0
343215.75,67.7012,-499.071,0,0
344517.375,65.5463,-495.114,0,0
345819.0,63.384,-490.938,0,0
347121,61.4205,-486.519,0,0
348422,59.9346,-481.707,0,0
349724,58.9288,-477.134,0,0
351025,58.149,-472.795,0,0
352327,57.511,-468.504,0,0
353629,57.0326,-464.386,0,0
354930,56.6459,-460.426,0,0
356232,56.3623,-456.469,0,0
357534,56.1037,-452.559,0,0
358835,55.9527,-448.743,0,0
360137,55.9716,-444.805,0,0
361438,56.2467,-441.038,0,0
362740.1,56.4427,-437.469,0,0
364041.725,56.6819,-433.723,0,0
365343.35,57.2381,-430,0,0
366644.975,57.82,-426.612,0,0
367946.6,58.0706,-422.883,0,0
369248.225,58.9318,-418.539,0,0
370549.85,60.6758,-414.266,0,0
371851.475,63.3434,-410.331,0,0
373153.1,66.6915,-407.571,0,0
374454.725,69.8465,-405.945,0,0
375756.35,72.4957,-404.872,0,0
377057.975,74.9285,-404.159,0,0
378359.6,76.9902,-403.987,0,0
379661,78.4355,-403.956,0,0
380963,80.0435,-403.623,0,0
382264,82.1441,-404.292,0,0
383566,83.1996,-406.425,0,0
384868,82.4096,-408.745,0,0
386169,80.2271,-410.131,0,0
387471,77.5957,-410.422,0,0
388773,74.8076,-409.638,0,0
390074,72.7023,-408.13,0,0
391376,71.0737,-406.658,0,0
392677,69.2504,-405.531,0,0
393979,66.7309,-404.081,0,0
395280.7,64.2699,-401.647,0,0
396582.325,62.1379,-398.682,0,0
397883.95,60.4326,-395.383,0,0
399185.575,59.2696,-391.798,0,0
400006.6,58.8741,-389.58,0,0