File: Accelerated corrosion test data/2025-10-23_06-00-04/sample_3.csv
Frequency (Hz),Impedance (ohms),Phase (Radians),Temperature (C),Humidity (%)
10000.0,251.697,-11921.1,0,0
11301.625,224.061,-10559.2,0,0
12603.25,203.407,-9476.8,0,0
13904.875,186.193,-8593.71,0,0
15206.5,175.031,-7853.6,0,0
16508.125,161.902,-7253.67,0,0
17809.75,157.523,-6720.47,0,0
19111.375,145.356,-6264.62,0,0
20413.0,166.323,-5862.33,0,0
21714.625,139.956,-5533.97,0,0
23016.25,128.225,-5225.14,0,0
24317.875,120.31,-4943.33,0,0
25619.5,114.022,-4692.97,0,0
26921.1,109.961,-4460.09,0,0
28222.7,104.769,-4250.15,0,0
29524.4,109.363,-4072.42,0,0
30826,102.248,-3898.41,0,0
32127.6,102.822,-3730.88,0,0
33429.2,99.4319,-3607.87,0,0
34730.9,88.0182,-3467.31,0,0
36032.5,83.7523,-3337.65,0,0
37334.1,80.5378,-3218.37,0,0
38635.7,78.1093,-3107.25,0,0
39937.4,75.7922,-3003.66,0,0
41239,74.5019,-2905.4,0,0
42540.6,73.3936,-2815.08,0,0
43842.225,72.0806,-2728.55,0,0
45143.85,71.4218,-2648.04,0,0
46445.475,69.9881,-2571.34,0,0
47747.1,70.6105,-2498.08,0,0
49048.725,68.4853,-2432.09,0,0
50350.35,66.4476,-2366.06,0,0
51651.975,66.2771,-2302.7,0,0
52953.6,66.3459,-2242.37,0,0
54255.225,69.0762,-2186.66,0,0
55556.85,66.856,-2138.44,0,0
56858.475,61.7383,-2085.35,0,0
58160.1,61.0612,-2032.79,0,0
59461.7,61.5424,-1983.01,0,0
60763.3,62.8215,-1935.95,0,0
62065,64.6943,-1890.63,0,0
63366.6,68.7439,-1846.37,0,0
64668.2,77.3646,-1804.11,0,0
65969.8,92.0837,-1777.84,0,0
67271.5,75.5605,-1752.09,0,0
68573.1,75.7523,-1713.8,0,0
69874.7,76.7857,-1684.12,0,0
71176.3,71.5209,-1653.85,0,0
72478,70.739,-1620.82,0,0
73779.6,69.4924,-1592.57,0,0
75081.2,65.9297,-1564.77,0,0
76382.825,61.948,-1535.64,0,0
77684.45,59.0309,-1506.55,0,0
78986.075,56.4634,-1477.81,0,0
80287.7,54.7056,-1449.41,0,0
81589.325,53.5714,-1421.96,0,0
82890.95,52.919,-1395.2,0,0
84192.575,52.5521,-1369.25,0,0
85494.2,52.4047,-1344.07,0,0
86795.825,52.3476,-1319.51,0,0
88097.45,52.8881,-1295.39,0,0
89399.075,54.1547,-1271.46,0,0
90700.7,55.9248,-1249.7,0,0
92002.3,57.9117,-1228.65,0,0
93303.9,60.513,-1209.11,0,0
94605.6,61.3165,-1194.1,0,0
95907.2,56.3911,-1175.77,0,0
97208.8,55.1643,-1154.23,0,0
98510.4,55.0211,-1134.08,0,0
99812.1,54.8434,-1114.61,0,0
101114,54.7012,-1094.75,0,0
102415,56.2147,-1074.17,0,0
103717,59.9082,-1056.36,0,0
105019,63.2557,-1041.57,0,0
106320.175,63.3441,-1027.74,0,0
107621.8,61.6363,-1012.38,0,0
108923.425,59.6253,-995.375,0,0
110225.05,59.3734,-976.994,0,0
111526.675,61.4927,-958.972,0,0
112828.3,63.6816,-942.924,0,0
114129.925,64.8019,-927.243,0,0
115431.55,66.3123,-909.981,0,0
116733.175,69.7159,-893.145,0,0
118034.8,75.4764,-876.358,0,0
119336.425,82.2531,-863.354,0,0
120638.05,89.6174,-857.456,0,0
121939.675,85.4806,-849.215,0,0
123241,86.1667,-834.947,0,0
124543,88.0932,-822.867,0,0
125845,90.3993,-812.047,0,0
127146,90.8154,-802.084,0,0
128448,90.0213,-792.186,0,0
129749,88.9436,-780.042,0,0
131051,89.8923,-768.201,0,0
132353,88.7134,-757.39,0,0
133654,87.3791,-745.703,0,0
134956,85.9856,-733.079,0,0
136258,84.4115,-719.912,0,0
137559,83.7009,-704.624,0,0
138860.775,85.1519,-691.166,0,0
140162.4,84.5959,-678.202,0,0
141464.025,83.3056,-664.463,0,0
142765.65,82.1164,-648.38,0,0
144067.275,82.1799,-631.12,0,0
145368.9,83.5941,-613.183,0,0
146670.525,85.9131,-594.268,0,0
147972.15,89.9453,-574.659,0,0
149273.775,95.8054,-554.249,0,0
150575.4,105.508,-534.135,0,0
151877.025,117.625,-516.526,0,0
153178.65,129.403,-502.501,0,0
154480,139.425,-488.959,0,0
155782,149.475,-473.633,0,0
157084,160.801,-456.481,0,0
158385,175.886,-446.148,0,0
159687,180.586,-431.41,0,0
160988,192.835,-407.232,0,0
162290,215.056,-380.768,0,0
163592,245.339,-353.984,0,0
164893,294.082,-338.43,0,0
166195,347.944,-345.099,0,0
167497,390.423,-374.953,0,0
168798,411.899,-410.218,0,0
170100,414.333,-445.678,0,0
171401.375,409.849,-459.503,0,0
172703.0,411.795,-467.751,0,0
174004.625,417.147,-480.219,0,0
175306.25,423.431,-495.508,0,0
176607.875,426.949,-525.032,0,0
177909.5,397.313,-546.892,0,0
179211.125,370.75,-536.503,0,0
180512.75,366.091,-520.94,0,0
181814.375,372.735,-517.416,0,0
183116.0,371.527,-525.561,0,0
184417.625,357.395,-529.272,0,0
185719.25,339.361,-521.999,0,0
187021,330.042,-500.978,0,0
188322,329.883,-484.088,0,0
189624,331.383,-463.989,0,0
190926,340.734,-448.392,0,0
192227,348.157,-434.036,0,0
193529,359.526,-414.113,0,0
194831,379.783,-397.81,0,0
196132,409.376,-386.794,0,0
197434,435.606,-394.415,0,0
198735,447.775,-402.766,0,0
200037,456.105,-403.162,0,0
201339,465.631,-394.691,0,0
202640.35,490.34,-384.985,0,0
203941.975,520.085,-386.313,0,0
205243.6,546.502,-402.966,0,0
206545.225,555.481,-412.717,0,0
207846.85,579.503,-408.38,0,0
209148.475,616.211,-418.578,0,0
210450.1,649.753,-441.73,0,0
211751.725,677.71,-473.48,0,0
213053.35,701.387,-509.61,0,0
214354.975,714.644,-554.617,0,0
215656.6,720.136,-598.262,0,0
216958.225,717.869,-641.831,0,0
218259.85,709.182,-684.981,0,0
219561,693.017,-723.723,0,0
220863,677.106,-761.018,0,0
222165,649.339,-804.15,0,0
223466,603.455,-833.003,0,0
224768,562.397,-838.397,0,0
226070,536.644,-839.143,0,0
227371,518.413,-847.417,0,0
228673,491.363,-858.063,0,0
229974,465.697,-864.008,0,0
231276,436.87,-867.781,0,0
232578,410.363,-866.223,0,0
233879,386.185,-863.05,0,0
235180.95,364.048,-859.802,0,0
236482.575,339.581,-856.069,0,0
237784.2,315.063,-848.772,0,0
239085.825,291.969,-836.436,0,0
240387.45,272.405,-821.687,0,0
241689.075,255.413,-804.092,0,0
242990.7,245.652,-784.96,0,0
244292.325,239.394,-771.812,0,0
245593.95,231.381,-758.666,0,0
246895.575,225.289,-745.096,0,0
248197.2,220.657,-731.58,0,0
249498.825,220.251,-719.713,0,0
250800,219.277,-712.173,0,0
252102,215.168,-706.101,0,0
253404,208.284,-697.764,0,0
254705,202.089,-684.516,0,0
256007,200.114,-668.181,0,0
257309,205.26,-653.187,0,0
258610,213.173,-641.362,0,0
259912,225.864,-632.321,0,0
261213,243.772,-632.423,0,0
262515,254.029,-646.316,0,0
263817,252.063,-660.601,0,0
265118,243.556,-670.676,0,0
266420,229.932,-676.736,0,0
267721.55,214.332,-674.249,0,0
269023.175,202.66,-666.289,0,0
270324.8,195.202,-655.84,0,0
271626.425,192.275,-646.127,0,0
272928.05,189.912,-637.791,0,0
274229.675,189.269,-628.425,0,0
275531.3,191.411,-619.172,0,0
276832.925,197.689,-611.898,0,0
278134.55,205.686,-609.64,0,0
279436.175,212.762,-612.895,0,0
280737.8,214.984,-620.031,0,0
282039.425,211.726,-626.875,0,0
283341,205.337,-630.79,0,0
284643,197.603,-631.687,0,0
285944,190.452,-629.564,0,0
287246,184.851,-625.827,0,0
288548,181.033,-621.52,0,0
289849,179.507,-618.02,0,0
291151,177.194,-616.985,0,0
292452,172.56,-615.459,0,0
293754,168.082,-611.018,0,0
295056,166.805,-605.241,0,0
296357,168.287,-602.723,0,0
297659,168.184,-603.108,0,0
298960.525,166.222,-604.094,0,0
300262.15,162.457,-605.156,0,0
301563.775,157.087,-605.313,0,0
302865.4,150.982,-603.458,0,0
304167.025,145.39,-600.378,0,0
305468.65,140.437,-596.155,0,0
306770.275,136.408,-591.427,0,0
308071.9,133.62,-586.41,0,0
309373.525,132.168,-581.969,0,0
310675.15,130.987,-579.353,0,0
311976.775,128.119,-577.598,0,0
313278.4,123.687,-574.648,0,0
314580,119.542,-569.48,0,0
315882,117.52,-563.235,0,0
317183,117.25,-557.913,0,0
318485,117.519,-553.698,0,0
319787,117.741,-550.63,0,0
321088,117.728,-547.237,0,0
322390,119.246,-544.425,0,0
323691,120.858,-544.24,0,0
324993,120.327,-545.683,0,0
326295,117.515,-547.08,0,0
327596,113.147,-547.159,0,0
328898,108.303,-545.577,0,0
330200,104.045,-543.183,0,0
331501.125,99.6974,-540.538,0,0
332802.75,95.1939,-537.151,0,0
334104.375,90.778,-532.941,0,0
335406.0,86.6804,-527.891,0,0
336707.625,83.4645,-521.938,0,0
338009.25,81.3817,-515.908,0,0
339310.875,79.5405,-509.823,0,0
340612.5,78.8459,-502.92,0,0
341914.125,80.11,-496.186,0,0
343215.75,82.9743,-491.553,0,0
344517.375,85.2591,-489.202,0,0
345819.0,86.1371,-487.715,0,0
347121,85.5622,-486.281,0,0
348422,84.2036,-483.572,0,0
349724,83.3576,-479.535,0,0
351025,84.4235,-475.562,0,0
352327,85.9924,-473.497,0,0
353629,86.4944,-472.604,0,0
354930,85.6105,-471.473,0,0
356232,84.0998,-469.726,0,0
357534,82.3817,-466.929,0,0
358835,81.6672,-463.326,0,0
360137,81.8446,-460.395,0,0
361438,81.5055,-458.104,0,0
362740.1,80.7526,-455.031,0,0
364041.725,81.2263,-451.371,0,0
365343.35,82.8629,-448.992,0,0
366644.975,83.8769,-448.43,0,0
367946.6,82.6899,-448.302,0,0
369248.225,80.1594,-445.974,0,0
370549.85,79.6648,-441.882,0,0
371851.475,80.9786,-439.476,0,0
373153.1,81.1914,-438.961,0,0
374454.725,79.4456,-437.668,0,0
375756.35,77.7386,-434.947,0,0
377057.975,76.9022,-431.496,0,0
378359.6,77.0036,-427.864,0,0
379661,78.4405,-425.046,0,0
380963,79.2682,-424.012,0,0
382264,79.0485,-422.769,0,0
383566,78.6411,-421.543,0,0
384868,77.3495,-420.15,0,0
386169,75.8599,-418.027,0,0
387471,74.2613,-415.155,0,0
388773,73.0947,-411.383,0,0
390074,72.9139,-407,0,0
391376,74.2203,-402.629,0,0
392677,76.6136,-399.487,0,0
393979,78.8194,-397.406,0,0
395280.7,80.9745,-396.024,0,0
396582.325,83.0718,-395.514,0,0
397883.95,84.2686,-395.687,0,0
399185.575,84.7716,-396.239,0,0
400006.6,84.5736,-396.715,0,0