File: Accelerated corrosion test data/2025-10-23_06-00-04/sample_2.csv
Frequency (Hz),Impedance (ohms),Phase (Radians),Temperature (C),Humidity (%)
10000.0,227.879,-11488.7,0,0
11301.625,202.623,-10175,0,0
12603.25,182.685,-9135.16,0,0
13904.875,185.184,-8284.18,0,0
15206.5,164.022,-7591.33,0,0
16508.125,142.515,-6993.07,0,0
17809.75,131.505,-6482.53,0,0
19111.375,127.923,-6040.64,0,0
20413.0,117.609,-5655.11,0,0
21714.625,127.231,-5325.92,0,0
23016.25,112.062,-5027.38,0,0
24317.875,102.694,-4759.94,0,0
25619.5,96.8762,-4514.92,0,0
26921.1,94.6919,-4295.69,0,0
28222.7,89.3661,-4095.35,0,0
29524.4,93.3952,-3910.39,0,0
30826,87.2135,-3755.82,0,0
32127.6,81.924,-3600.91,0,0
33429.2,79.1724,-3461.95,0,0
34730.9,75.4283,-3330.14,0,0
36032.5,72.6382,-3208.52,0,0
37334.1,70.6176,-3094.24,0,0
38635.7,68.6994,-2988.46,0,0
39937.4,66.46,-2889.35,0,0
41239,65.4722,-2795.71,0,0
42540.6,64.2862,-2708.9,0,0
43842.225,62.8469,-2626.58,0,0
45143.85,61.5558,-2548.2,0,0
46445.475,60.9399,-2475.78,0,0
47747.1,60.3301,-2405.79,0,0
49048.725,60.367,-2342.03,0,0
50350.35,57.4851,-2279.28,0,0
51651.975,56.3139,-2219.87,0,0
52953.6,54.792,-2162.22,0,0
54255.225,54.0849,-2107.29,0,0
55556.85,53.7105,-2055.08,0,0
56858.475,53.5807,-2005.02,0,0
58160.1,53.8959,-1957.51,0,0
59461.7,54.3646,-1911.27,0,0
60763.3,56.0606,-1868.57,0,0
62065,58.882,-1830.24,0,0
63366.6,55.4772,-1792.88,0,0
64668.2,52.8662,-1754.96,0,0
65969.8,50.583,-1715.37,0,0
67271.5,51.0572,-1677.86,0,0
68573.1,53.4023,-1643.9,0,0
69874.7,55.6713,-1613.41,0,0
71176.3,52.1813,-1585.15,0,0
72478,47.6447,-1554.62,0,0
73779.6,44.9751,-1521.48,0,0
75081.2,45.0574,-1488.97,0,0
76382.825,46.8002,-1458.42,0,0
77684.45,49.5898,-1430.08,0,0
78986.075,52.8774,-1405.78,0,0
80287.7,51.7287,-1384.13,0,0
81589.325,48.9622,-1359.05,0,0
82890.95,47.8698,-1333.09,0,0
84192.575,48.5115,-1308.26,0,0
85494.2,49.1666,-1284.62,0,0
86795.825,50.1953,-1262.43,0,0
88097.45,50.6443,-1240.97,0,0
89399.075,51.1198,-1219.65,0,0
90700.7,51.0147,-1199.21,0,0
92002.3,52.7641,-1177.87,0,0
93303.9,54.8616,-1158.95,0,0
94605.6,55.1811,-1142.21,0,0
95907.2,54.0733,-1122.53,0,0
97208.8,57.8801,-1105.34,0,0
98510.4,56.9932,-1091.53,0,0
99812.1,53.2213,-1076.07,0,0
101114,50.5156,-1059.31,0,0
102415,47.0318,-1039.07,0,0
103717,45.8694,-1017.92,0,0
105019,49.21,-997.762,0,0
106320.175,53.7146,-980.058,0,0
107621.8,57.6487,-968.351,0,0
108923.425,56.2161,-956.342,0,0
110225.05,52.8005,-941.202,0,0
111526.675,51.383,-923.34,0,0
112828.3,51.6369,-905.805,0,0
114129.925,53.1506,-888.507,0,0
115431.55,55.7866,-871.795,0,0
116733.175,58.9755,-856.066,0,0
118034.8,63.096,-841.455,0,0
119336.425,67.1069,-828.941,0,0
120638.05,70.0196,-818.309,0,0
121939.675,69.9674,-807.618,0,0
123241,69.2605,-794.783,0,0
124543,68.9336,-781.432,0,0
125845,68.698,-766.826,0,0
127146,70.0231,-751.322,0,0
128448,72.8559,-736.779,0,0
129749,76.0048,-723.341,0,0
131051,79.4398,-710.975,0,0
132353,80.8571,-699.213,0,0
133654,82.2541,-686.19,0,0
134956,82.8732,-672.725,0,0
136258,84.684,-657.633,0,0
137559,87.4219,-642.457,0,0
138860.775,90.5207,-627.558,0,0
140162.4,93.4802,-611.263,0,0
141464.025,98.886,-593.254,0,0
142765.65,107.644,-576.142,0,0
144067.275,117.102,-560.299,0,0
145368.9,127.625,-545.404,0,0
146670.525,139.131,-530.528,0,0
147972.15,152.902,-515.208,0,0
149273.775,172.508,-499.523,0,0
150575.4,200.062,-492.618,0,0
151877.025,224.546,-499.687,0,0
153178.65,238.175,-513.713,0,0
154480,239.872,-525.991,0,0
155782,238.961,-530.951,0,0
157084,234.325,-533.844,0,0
158385,231.361,-530.463,0,0
159687,229.031,-526.687,0,0
160988,227.864,-520.198,0,0
162290,235.144,-516.966,0,0
163592,230.949,-522.624,0,0
164893,218.271,-520.519,0,0
166195,205.16,-508.26,0,0
167497,197.502,-490.287,0,0
168798,193.215,-469.706,0,0
170100,194.01,-446.798,0,0
171401.375,198.238,-424.603,0,0
172703.0,205.637,-401.556,0,0
174004.625,217.163,-377.997,0,0
175306.25,234.073,-355.154,0,0
176607.875,255.989,-336.147,0,0
177909.5,283.107,-323.589,0,0
179211.125,306.234,-321.206,0,0
180512.75,317.015,-320.574,0,0
181814.375,323.689,-305.083,0,0
183116.0,339.053,-287.359,0,0
184417.625,359.743,-264.745,0,0
185719.25,392.287,-244.674,0,0
187021,428.144,-230.453,0,0
188322,469.841,-222.258,0,0
189624,505.768,-218.615,0,0
190926,550.032,-209.459,0,0
192227,607.738,-205.175,0,0
193529,679.954,-216.065,0,0
194831,752.866,-255.125,0,0
196132,808.242,-313.313,0,0
197434,854.058,-375.038,0,0
198735,891.645,-455.417,0,0
200037,905.905,-541.309,0,0
201339,899.509,-631.115,0,0
202640.35,868.732,-709.006,0,0
203941.975,827.376,-774.747,0,0
205243.6,778.755,-832.116,0,0
206545.225,714.366,-867.442,0,0
207846.85,656.746,-882.905,0,0
209148.475,616.076,-888.474,0,0
210450.1,576.295,-903.344,0,0
211751.725,527.286,-911.288,0,0
213053.35,482.971,-902.642,0,0
214354.975,446.853,-889.728,0,0
215656.6,417.45,-874.103,0,0
216958.225,394.591,-855.375,0,0
218259.85,378.611,-838.533,0,0
219561,366.761,-822.413,0,0
220863,358.9,-809.355,0,0
222165,354.287,-798.311,0,0
223466,350.888,-791.645,0,0
224768,347.141,-786.354,0,0
226070,343.637,-782.239,0,0
227371,342.846,-779.798,0,0
228673,343.242,-782.989,0,0
229974,337.926,-791.692,0,0
231276,327.498,-798.371,0,0
232578,314.447,-804.653,0,0
233879,297.642,-807.441,0,0
235180.95,281.599,-806.719,0,0
236482.575,265.756,-805.045,0,0
237784.2,248.749,-801.259,0,0
239085.825,233.374,-794.506,0,0
240387.45,218.901,-786.611,0,0
241689.075,206.303,-776.861,0,0
242990.7,196.33,-766.365,0,0
244292.325,188.816,-757.588,0,0
245593.95,181.543,-751.684,0,0
246895.575,169.973,-747.145,0,0
248197.2,156.164,-738.22,0,0
249498.825,143.387,-726.024,0,0
250800,132.528,-710.868,0,0
252102,125.447,-693.606,0,0
253404,121.718,-676.949,0,0
254705,119.677,-661.02,0,0
256007,120.108,-644.663,0,0
257309,123.242,-629.956,0,0
258610,128.009,-616.507,0,0
259912,134.885,-604.831,0,0
261213,143.044,-595.795,0,0
262515,151.548,-589.386,0,0
263817,159.51,-585.261,0,0
265118,167.03,-582.975,0,0
266420,173.154,-582.416,0,0
267721.55,178.342,-582.508,0,0
269023.175,182.2,-583.99,0,0
270324.8,183.538,-584.979,0,0
271626.425,184.689,-583.202,0,0
272928.05,188.559,-580.493,0,0
274229.675,195.822,-578.655,0,0
275531.3,207.801,-582.876,0,0
276832.925,215.135,-597.358,0,0
278134.55,212.457,-613.233,0,0
279436.175,203.035,-625.545,0,0
280737.8,190.369,-632.789,0,0
282039.425,177.865,-636.612,0,0
283341,162.903,-637.191,0,0
284643,150.91,-632.326,0,0
285944,138.751,-628.876,0,0
287246,124.578,-619.548,0,0
288548,115.043,-602.673,0,0
289849,115.753,-583.576,0,0
291151,125.734,-568.78,0,0
292452,141.563,-565.57,0,0
293754,149.722,-574.048,0,0
295056,146.698,-579.476,0,0
296357,148.719,-577.469,0,0
297659,152.931,-587.619,0,0
298960.525,144.25,-596.943,0,0
300262.15,133.326,-599.04,0,0
301563.775,124.524,-596.5,0,0
302865.4,119.301,-593.34,0,0
304167.025,114.766,-592.869,0,0
305468.65,107.739,-592.826,0,0
306770.275,99.3352,-590.35,0,0
308071.9,91.6917,-586.064,0,0
309373.525,84.8577,-580.634,0,0
310675.15,79.0563,-574.694,0,0
311976.775,74.0587,-568.297,0,0
313278.4,69.9749,-561.666,0,0
314580,66.6219,-555.186,0,0
315882,63.6587,-548.694,0,0
317183,61.1796,-542.212,0,0
318485,59.4362,-535.611,0,0
319787,58.173,-529.542,0,0
321088,56.9898,-523.602,0,0
322390,56.1412,-517.558,0,0
323691,55.4919,-511.321,0,0
324993,55.6942,-504.623,0,0
326295,57.7852,-497.968,0,0
327596,61.1863,-493.751,0,0
328898,63.5952,-491.002,0,0
330200,65.8358,-488.991,0,0
331501.125,67.3621,-488.386,0,0
332802.75,67.1398,-488.575,0,0
334104.375,64.8711,-487.895,0,0
335406.0,62.3353,-485.594,0,0
336707.625,60.1939,-482.557,0,0
338009.25,58.3311,-479.103,0,0
339310.875,56.7799,-475.347,0,0
340612.5,55.3714,-471.3,0,0
341914.125,54.3408,-467.028,0,0
343215.75,53.6697,-462.504,0,0
344517.375,53.5989,-457.815,0,0
345819.0,54.0976,-453.323,0,0
347121,55.0332,-449.142,0,0
348422,56.2895,-445.198,0,0
349724,57.9541,-441.644,0,0
351025,59.8902,-438.811,0,0
352327,61.356,-436.653,0,0
353629,62.5461,-434.422,0,0
354930,63.8504,-432.109,0,0
356232,65.1272,-429.978,0,0
357534,66.938,-427.95,0,0
358835,68.9639,-426.818,0,0
360137,70.5978,-426.429,0,0
361438,71.4726,-426.405,0,0
362740.1,71.7523,-426.45,0,0
364041.725,71.4398,-426.401,0,0
365343.35,70.6527,-425.784,0,0
366644.975,70.0047,-424.789,0,0
367946.6,69.6973,-423.48,0,0
369248.225,69.9556,-422.705,0,0
370549.85,69.3642,-422.691,0,0
371851.475,68.2177,-422.075,0,0
373153.1,67.288,-421.365,0,0
374454.725,66.1216,-420.78,0,0
375756.35,64.4781,-420.046,0,0
377057.975,62.786,-418.881,0,0
378359.6,61.173,-418.037,0,0
379661,58.3672,-416.988,0,0
380963,55.6267,-413.565,0,0
382264,55.5508,-410.775,0,0
383566,54.4529,-409.734,0,0
384868,52.267,-408.054,0,0
386169,49.9334,-405.47,0,0
387471,48.0462,-402.314,0,0
388773,46.6403,-398.76,0,0
390074,46.029,-395.094,0,0
391376,46.2207,-392.186,0,0
392677,45.6833,-390.435,0,0
393979,43.915,-388.202,0,0
395280.7,42.062,-384.692,0,0
396582.325,41.0919,-380.403,0,0
397883.95,40.922,-376.14,0,0
399185.575,41.4697,-372.11,0,0
400006.6,41.9909,-369.877,0,0