File: Accelerated corrosion test data/2025-10-23_06-00-04/sample_7.csv
Frequency (Hz),Impedance (ohms),Phase (Radians),Temperature (C),Humidity (%)
10000.0,272.673,-12124,0,0
11301.625,246.372,-10726.4,0,0
12603.25,257.002,-9670.62,0,0
13904.875,209.232,-8774.9,0,0
15206.5,193.122,-8036.66,0,0
16508.125,170.747,-7394.04,0,0
17809.75,168.768,-6837.03,0,0
19111.375,182.012,-6393.76,0,0
20413.0,170.234,-5997.88,0,0
21714.625,156.81,-5661.32,0,0
23016.25,128.651,-5333.26,0,0
24317.875,121.588,-5039.4,0,0
25619.5,117.208,-4774.01,0,0
26921.1,119.824,-4528.82,0,0
28222.7,179.609,-4303.39,0,0
29524.4,139.951,-4192.89,0,0
30826,129.642,-4000.42,0,0
32127.6,118.115,-3852.71,0,0
33429.2,100.68,-3702.34,0,0
34730.9,91.4535,-3556.46,0,0
36032.5,87.7757,-3422.35,0,0
37334.1,85.2169,-3298.16,0,0
38635.7,86.0642,-3180.27,0,0
39937.4,99.5684,-3080.66,0,0
41239,86.6153,-2994.42,0,0
42540.6,79.3992,-2897.64,0,0
43842.225,78.4414,-2808.22,0,0
45143.85,79.6972,-2730.21,0,0
46445.475,76.8261,-2657.97,0,0
47747.1,70.0602,-2581.13,0,0
49048.725,67.3036,-2510.4,0,0
50350.35,65.4254,-2443.15,0,0
51651.975,63.7506,-2379.28,0,0
52953.6,63.112,-2318.88,0,0
54255.225,61.7208,-2262.07,0,0
55556.85,60.2855,-2207.07,0,0
56858.475,59.4248,-2154.48,0,0
58160.1,58.52,-2104.01,0,0
59461.7,58.7926,-2056.36,0,0
60763.3,58.0662,-2012.31,0,0
62065,56.1749,-1968.7,0,0
63366.6,54.9361,-1925.88,0,0
64668.2,54.2268,-1885.15,0,0
65969.8,54.4153,-1846.9,0,0
67271.5,52.4524,-1809.76,0,0
68573.1,51.3242,-1772.87,0,0
69874.7,50.7653,-1737.59,0,0
71176.3,50.5874,-1703.89,0,0
72478,49.4523,-1671.55,0,0
73779.6,48.6886,-1639.52,0,0
75081.2,48.1821,-1608.78,0,0
76382.825,47.6213,-1578.89,0,0
77684.45,47.3819,-1550,0,0
78986.075,47.0901,-1522.01,0,0
80287.7,46.8519,-1494.9,0,0
81589.325,46.4481,-1468.62,0,0
82890.95,46.2688,-1442.85,0,0
84192.575,46.2512,-1417.74,0,0
85494.2,46.3905,-1393.68,0,0
86795.825,46.3882,-1370.14,0,0
88097.45,46.4167,-1347.58,0,0
89399.075,45.9232,-1325.16,0,0
90700.7,45.9709,-1302.84,0,0
92002.3,46.1021,-1280.97,0,0
93303.9,46.9701,-1259.05,0,0
94605.6,50.2832,-1239.99,0,0
95907.2,49.0294,-1222.53,0,0
97208.8,48.4367,-1202.49,0,0
98510.4,49.0661,-1183.29,0,0
99812.1,48.5478,-1164.28,0,0
101114,50.1519,-1145.08,0,0
102415,52.0152,-1126.77,0,0
103717,54.882,-1110.36,0,0
105019,55.635,-1095.49,0,0
106320.175,55.1498,-1079.29,0,0
107621.8,55.5052,-1062.88,0,0
108923.425,56.6938,-1046.35,0,0
110225.05,57.1849,-1029.16,0,0
111526.675,60.2137,-1012.17,0,0
112828.3,65.0727,-995.474,0,0
114129.925,70.6233,-981.039,0,0
115431.55,77.5949,-967.903,0,0
116733.175,86.5118,-959.839,0,0
118034.8,91.379,-955.42,0,0
119336.425,93.85,-954.67,0,0
120638.05,86.3715,-955.332,0,0
121939.675,75.5129,-945.175,0,0
123241,67.4883,-932.299,0,0
124543,62.5905,-917.987,0,0
125845,57.9501,-904.066,0,0
127146,54.1684,-888.786,0,0
128448,52.5345,-873.642,0,0
129749,50.9903,-859.268,0,0
131051,49.3887,-844.909,0,0
132353,48.4064,-829.383,0,0
133654,48.9669,-813.584,0,0
134956,51.7153,-798.845,0,0
136258,56.7381,-786.898,0,0
137559,55.8782,-778.997,0,0
138860.775,53.1629,-766.245,0,0
140162.4,53.3345,-752.016,0,0
141464.025,52.9317,-738.233,0,0
142765.65,54.2712,-723.456,0,0
144067.275,57.4548,-710.047,0,0
145368.9,59.1064,-698.001,0,0
146670.525,60.594,-685.187,0,0
147972.15,61.9076,-672.836,0,0
149273.775,61.4848,-660.147,0,0
150575.4,61.219,-644.506,0,0
151877.025,62.8049,-626.913,0,0
153178.65,66.4466,-609.017,0,0
154480,71.6107,-590.679,0,0
155782,79.2077,-571.635,0,0
157084,89.9239,-553.601,0,0
158385,103.659,-538.758,0,0
159687,114.313,-529.878,0,0
160988,118.033,-517.086,0,0
162290,124.454,-493.977,0,0
163592,140.376,-468.816,0,0
164893,162.271,-447.069,0,0
166195,188.352,-421.223,0,0
167497,231.797,-397.837,0,0
168798,291.96,-390,0,0
170100,355.101,-409.043,0,0
171401.375,410.826,-455.999,0,0
172703.0,442.666,-529.187,0,0
174004.625,422.731,-611.763,0,0
175306.25,365.518,-641.965,0,0
176607.875,333.591,-633.777,0,0
177909.5,335.675,-627.161,0,0
179211.125,339.64,-661.084,0,0
180512.75,313.296,-688.211,0,0
181814.375,272.725,-704.981,0,0
183116.0,224.58,-700.872,0,0
184417.625,192.445,-677.865,0,0
185719.25,170.194,-655.157,0,0
187021,155.302,-626.854,0,0
188322,151.353,-603.527,0,0
189624,142.365,-585.476,0,0
190926,135.086,-561.438,0,0
192227,133.854,-536.804,0,0
193529,135.905,-510.72,0,0
194831,142.574,-486.109,0,0
196132,153.129,-465.167,0,0
197434,164.775,-446.923,0,0
198735,174.684,-431.062,0,0
200037,183.462,-412.525,0,0
201339,196.303,-390.972,0,0
202640.35,214.47,-367.149,0,0
203941.975,239.569,-345.434,0,0
205243.6,272.295,-326.202,0,0
206545.225,312.491,-319.706,0,0
207846.85,344.185,-319.234,0,0
209148.475,380.391,-311.884,0,0
210450.1,438.675,-313.872,0,0
211751.725,492.968,-352.627,0,0
213053.35,519.216,-403.267,0,0
214354.975,535.293,-446.428,0,0
215656.6,539.486,-491.635,0,0
216958.225,539.563,-539.159,0,0
218259.85,521.189,-587.389,0,0
219561,479.706,-621.735,0,0
220863,438.899,-624.227,0,0
222165,415.652,-613.707,0,0
223466,407.798,-605.967,0,0
224768,401.585,-602.672,0,0
226070,401.916,-594.056,0,0
227371,411.521,-594.441,0,0
228673,423.963,-605.851,0,0
229974,427.932,-624.95,0,0
231276,426.257,-650.336,0,0
232578,418.522,-675.183,0,0
233879,396.126,-706.578,0,0
235180.95,356.953,-723.154,0,0
236482.575,320.014,-718.449,0,0
237784.2,289.403,-707.922,0,0
239085.825,270.607,-684.227,0,0
240387.45,270.047,-671.754,0,0
241689.075,258.533,-670.587,0,0
242990.7,239.847,-657.409,0,0
244292.325,233.959,-636.91,0,0
245593.95,238.05,-627.337,0,0
246895.575,233.264,-622.069,0,0
248197.2,227.315,-612.076,0,0
249498.825,224.59,-597.779,0,0
250800,227.627,-583.135,0,0
252102,236.377,-570.535,0,0
253404,251.425,-565.026,0,0
254705,263.805,-569.772,0,0
256007,269.222,-579.511,0,0
257309,266.39,-587.868,0,0
258610,261.254,-589.526,0,0
259912,258.86,-591.256,0,0
261213,254.039,-590.742,0,0
262515,251.738,-586.556,0,0
263817,256.394,-583.819,0,0
265118,259.82,-588.886,0,0
266420,259.659,-593.105,0,0
267721.55,259.506,-600.479,0,0
269023.175,251.969,-606.786,0,0
270324.8,245.407,-605.364,0,0
271626.425,248.879,-603.22,0,0
272928.05,257.839,-618.411,0,0
274229.675,246.866,-643.593,0,0
275531.3,218.411,-661.021,0,0
276832.925,181.873,-658.746,0,0
278134.55,154.531,-639.023,0,0
279436.175,141.506,-615.565,0,0
280737.8,137.446,-594.878,0,0
282039.425,136.211,-581.253,0,0
283341,132.395,-566.805,0,0
284643,134.21,-549.279,0,0
285944,141.819,-536.055,0,0
287246,149.913,-529.637,0,0
288548,152.86,-526.052,0,0
289849,153.603,-519.607,0,0
291151,156.83,-509.71,0,0
292452,163.031,-501.582,0,0
293754,170.624,-494.476,0,0
295056,179.573,-488.281,0,0
296357,190.735,-483.337,0,0
297659,204.553,-481.095,0,0
298960.525,219.304,-482.358,0,0
300262.15,236.149,-487.521,0,0
301563.775,255.319,-499.601,0,0
302865.4,271.122,-525.065,0,0
304167.025,269.854,-557.907,0,0
305468.65,255.921,-583.932,0,0
306770.275,234.251,-602.282,0,0
308071.9,210.85,-611.139,0,0
309373.525,187.08,-612.264,0,0
310675.15,168.798,-606.279,0,0
311976.775,155.082,-599.966,0,0
313278.4,142.871,-593.381,0,0
314580,131.774,-584.646,0,0
315882,124.317,-574.424,0,0
317183,119.889,-565.458,0,0
318485,116.659,-557.633,0,0
319787,114.569,-550.723,0,0
321088,113.051,-545.307,0,0
322390,111.392,-540.441,0,0
323691,109.884,-536.285,0,0
324993,108.204,-532.417,0,0
326295,107.117,-528.727,0,0
327596,106.162,-526.441,0,0
328898,104.051,-525.011,0,0
330200,101.089,-523.439,0,0
331501.125,97.3899,-521.931,0,0
332802.75,92.46,-519.917,0,0
334104.375,86.8213,-516.537,0,0
335406.0,81.7176,-511.846,0,0
336707.625,76.9483,-506.52,0,0
338009.25,72.8463,-500.13,0,0
339310.875,69.7019,-493.627,0,0
340612.5,67.0186,-487.009,0,0
341914.125,65.11,-479.958,0,0
343215.75,64.2702,-472.804,0,0
344517.375,64.5957,-466.14,0,0
345819.0,65.6252,-460.655,0,0
347121,66.2635,-456.704,0,0
348422,65.4598,-452.98,0,0
349724,64.1728,-447.95,0,0
351025,63.2958,-442.161,0,0
352327,63.6024,-435.585,0,0
353629,65.3835,-429.661,0,0
354930,67.8694,-424.855,0,0
356232,70.3652,-421.821,0,0
357534,71.0124,-419.903,0,0
358835,69.8525,-416.626,0,0
360137,69.1036,-411.399,0,0
361438,69.8293,-405.407,0,0
362740.1,71.8677,-399.77,0,0
364041.725,74.6248,-394.577,0,0
365343.35,78.3832,-390.26,0,0
366644.975,82.0683,-387.445,0,0
367946.6,85.3389,-385.092,0,0
369248.225,88.4679,-383.225,0,0
370549.85,91.1676,-382.715,0,0
371851.475,91.5448,-382.181,0,0
373153.1,91.5622,-379.654,0,0
374454.725,92.7724,-376.3,0,0
375756.35,94.9532,-373.647,0,0
377057.975,96.5011,-371.907,0,0
378359.6,97.4056,-369.232,0,0
379661,99.1444,-366.12,0,0
380963,101.118,-363.289,0,0
382264,103.357,-360.379,0,0
383566,106.043,-357.793,0,0
384868,108.75,-355.429,0,0
386169,111.301,-353.347,0,0
387471,113.622,-351.081,0,0
388773,116.117,-347.25,0,0
390074,121.118,-343.629,0,0
391376,126.791,-341.785,0,0
392677,132.296,-341.07,0,0
393979,136.816,-340.888,0,0
395280.7,141.435,-339.338,0,0
396582.325,148.116,-337.427,0,0
397883.95,157.721,-336.639,0,0
399185.575,170.502,-339.878,0,0
400006.6,178.792,-345.9,0,0