File: Accelerated corrosion test data/2025-10-23_06-00-04/sample_6.csv
Frequency (Hz),Impedance (ohms),Phase (Radians),Temperature (C),Humidity (%)
10000.0,4143.17,-6714.1,0,0
11301.625,3514.65,-6302.1,0,0
12603.25,3016.8,-5912.44,0,0
13904.875,2617.5,-5560.28,0,0
15206.5,2291.68,-5234.14,0,0
16508.125,2023.22,-4937.92,0,0
17809.75,1800.99,-4668.39,0,0
19111.375,1614.19,-4421.86,0,0
20413.0,1454.81,-4199.88,0,0
21714.625,1318.41,-3994.49,0,0
23016.25,1202.22,-3804.02,0,0
24317.875,1103.86,-3636.53,0,0
25619.5,1015.78,-3478.7,0,0
26921.1,938.428,-3332.5,0,0
28222.7,870.444,-3200.37,0,0
29524.4,807.47,-3072.39,0,0
30826,759.91,-2956.77,0,0
32127.6,709.966,-2850.29,0,0
33429.2,670.128,-2752.01,0,0
34730.9,625.814,-2658.97,0,0
36032.5,587.976,-2570.29,0,0
37334.1,554.618,-2483.8,0,0
38635.7,525.785,-2402.53,0,0
39937.4,503.191,-2326.63,0,0
41239,481.607,-2259.17,0,0
42540.6,457.785,-2196.05,0,0
43842.225,437.508,-2128.75,0,0
45143.85,423.337,-2068.54,0,0
46445.475,411.052,-2014.93,0,0
47747.1,396.175,-1966.02,0,0
49048.725,382.046,-1920.29,0,0
50350.35,364.908,-1878.12,0,0
51651.975,345.693,-1832.29,0,0
52953.6,331.18,-1785.64,0,0
54255.225,316.92,-1742.47,0,0
55556.85,307.28,-1699.52,0,0
56858.475,297.659,-1657.09,0,0
58160.1,295.117,-1620.56,0,0
59461.7,287.387,-1591.92,0,0
60763.3,274.642,-1561.99,0,0
62065,259.396,-1527.22,0,0
63366.6,255.245,-1488.91,0,0
64668.2,249.063,-1462.55,0,0
65969.8,241.283,-1431.33,0,0
67271.5,235.744,-1403.41,0,0
68573.1,229.353,-1376.55,0,0
69874.7,223.478,-1350.8,0,0
71176.3,216.389,-1326.15,0,0
72478,209.659,-1300.77,0,0
73779.6,203.442,-1276.51,0,0
75081.2,197.509,-1252.77,0,0
76382.825,191.195,-1229.52,0,0
77684.45,185.104,-1206.22,0,0
78986.075,179.496,-1182.99,0,0
80287.7,174.253,-1159.82,0,0
81589.325,170.016,-1136.46,0,0
82890.95,166.684,-1114.16,0,0
84192.575,163.627,-1091.7,0,0
85494.2,162.321,-1069.64,0,0
86795.825,161.871,-1049.55,0,0
88097.45,161.533,-1030.3,0,0
89399.075,162.202,-1011.47,0,0
90700.7,163.048,-996.714,0,0
92002.3,160.025,-981.02,0,0
93303.9,158.33,-965.122,0,0
94605.6,157.467,-948.335,0,0
95907.2,157.212,-932.746,0,0
97208.8,156.487,-919.515,0,0
98510.4,153.924,-904.985,0,0
99812.1,153.678,-890.131,0,0
101114,153.522,-877.668,0,0
102415,151.409,-865.629,0,0
103717,149.024,-854.382,0,0
105019,144.023,-843.775,0,0
106320.175,135.3,-829.171,0,0
107621.8,130.739,-807.991,0,0
108923.425,131.767,-787.859,0,0
110225.05,134.893,-770.64,0,0
111526.675,140.551,-754.498,0,0
112828.3,147.668,-744.681,0,0
114129.925,149.565,-737.016,0,0
115431.55,150.226,-727.624,0,0
116733.175,152.462,-722.009,0,0
118034.8,145.599,-716.29,0,0
119336.425,138.649,-701.94,0,0
120638.05,137.987,-685.273,0,0
121939.675,141.357,-673.212,0,0
123241,140.681,-663.324,0,0
124543,140.04,-652.194,0,0
125845,138.56,-641.115,0,0
127146,136.721,-628.442,0,0
128448,136.555,-613.578,0,0
129749,139.212,-600.128,0,0
131051,141.647,-588.019,0,0
132353,144.264,-575.921,0,0
133654,147.594,-564.49,0,0
134956,150.888,-553.641,0,0
136258,154.801,-543.421,0,0
137559,158.618,-534.638,0,0
138860.775,161.183,-526.472,0,0
140162.4,162.8,-518.011,0,0
141464.025,164.742,-508.887,0,0
142765.65,165.624,-500.735,0,0
144067.275,166.031,-489.866,0,0
145368.9,169.274,-479.853,0,0
146670.525,170.73,-471.469,0,0
147972.15,170.534,-462.305,0,0
149273.775,169.975,-450.505,0,0
150575.4,171.362,-437.058,0,0
151877.025,174.091,-422.766,0,0
153178.65,180.635,-409.485,0,0
154480,185.487,-399.477,0,0
155782,189.789,-386.411,0,0
157084,197.613,-375.147,0,0
158385,203.319,-366.865,0,0
159687,207.424,-356.41,0,0
160988,211.667,-345.322,0,0
162290,216.575,-333.11,0,0
163592,222.808,-320.977,0,0
164893,228.331,-309.715,0,0
166195,232.684,-296.448,0,0
167497,238.474,-280.764,0,0
168798,246.763,-264.334,0,0
170100,256.08,-248.545,0,0
171401.375,265.841,-232.139,0,0
172703.0,276.061,-214.084,0,0
174004.625,287.812,-193.927,0,0
175306.25,302.747,-171.45,0,0
176607.875,321.408,-147.583,0,0
177909.5,344.893,-122.971,0,0
179211.125,373.561,-98.3519,0,0
180512.75,408.25,-76.1976,0,0
181814.375,446.043,-56.6734,0,0
183116.0,487.252,-38.4438,0,0
184417.625,534.26,-19.4409,0,0
185719.25,590.144,-1.91079,0,0
187021,658.181,12.1222,0,0
188322,741.028,15.9918,0,0
189624,837.743,0.829374,0,0
190926,939.887,-41.7046,0,0
192227,1037.25,-113.688,0,0
193529,1119.03,-214.07,0,0
194831,1175.45,-337.024,0,0
196132,1198.84,-473.334,0,0
197434,1185.25,-610.039,0,0
198735,1139.35,-732.612,0,0
200037,1071.58,-834.685,0,0
201339,990.06,-914.038,0,0
202640.35,900.877,-969.826,0,0
203941.975,812.914,-1002.05,0,0
205243.6,731.438,-1017.39,0,0
206545.225,658.523,-1020.19,0,0
207846.85,594.205,-1014.56,0,0
209148.475,538.129,-1003.27,0,0
210450.1,489.34,-989.589,0,0
211751.725,444.636,-974.067,0,0
213053.35,404.559,-954.437,0,0
214354.975,369.965,-933.534,0,0
215656.6,340.22,-911.236,0,0
216958.225,315.008,-888.756,0,0
218259.85,293.214,-866.944,0,0
219561,274.078,-845.309,0,0
220863,257.805,-823.936,0,0
222165,243.701,-802.751,0,0
223466,231.952,-781.472,0,0
224768,222.826,-760.531,0,0
226070,216.823,-740.707,0,0
227371,212.545,-722.537,0,0
228673,208.987,-705.784,0,0
229974,206.009,-689.319,0,0
231276,204.436,-672.85,0,0
232578,204.559,-656.708,0,0
233879,206.566,-640.996,0,0
235180.95,210.627,-626.18,0,0
236482.575,216.618,-612.7,0,0
237784.2,224.638,-600.759,0,0
239085.825,234.623,-590.883,0,0
240387.45,246.028,-583.899,0,0
241689.075,258.581,-580.023,0,0
242990.7,271.329,-579.455,0,0
244292.325,284.168,-582.87,0,0
245593.95,294.683,-591.295,0,0
246895.575,300.47,-601.972,0,0
248197.2,303.065,-612.298,0,0
249498.825,303.489,-621.801,0,0
250800,304.758,-631.374,0,0
252102,304.255,-644.982,0,0
253404,298.855,-659.827,0,0
254705,288.314,-674.05,0,0
256007,273.408,-684.963,0,0
257309,256.313,-691.327,0,0
258610,239.318,-693.52,0,0
259912,223.289,-692.776,0,0
261213,208.45,-690.035,0,0
262515,194.99,-685.489,0,0
263817,183.042,-679.78,0,0
265118,172.351,-673.553,0,0
266420,162.925,-666.802,0,0
267721.55,154.533,-660.014,0,0
269023.175,146.975,-653.143,0,0
270324.8,140.047,-646.238,0,0
271626.425,133.693,-639.363,0,0
272928.05,127.973,-632.497,0,0
274229.675,122.648,-625.593,0,0
275531.3,117.898,-618.881,0,0
276832.925,113.378,-612.098,0,0
278134.55,109.343,-605.297,0,0
279436.175,105.745,-598.406,0,0
280737.8,103.151,-591.405,0,0
282039.425,101.271,-585.403,0,0
283341,99.0427,-580.027,0,0
284643,96.8351,-574.553,0,0
285944,95.2004,-569.114,0,0
287246,93.7484,-564.629,0,0
288548,91.6376,-560.487,0,0
289849,89.3071,-555.962,0,0
291151,87.244,-551.353,0,0
292452,85.4062,-546.992,0,0
293754,83.3458,-542.912,0,0
295056,80.9293,-538.653,0,0
296357,78.6312,-533.839,0,0
297659,76.8843,-528.695,0,0
298960.525,75.9373,-523.887,0,0
300262.15,74.9962,-519.997,0,0
301563.775,73.5958,-516.065,0,0
302865.4,72.1037,-512.115,0,0
304167.025,70.7699,-507.883,0,0
305468.65,69.7897,-503.757,0,0
306770.275,68.7784,-500.138,0,0
308071.9,67.5575,-496.416,0,0
309373.525,66.3926,-492.665,0,0
310675.15,65.3435,-488.918,0,0
311976.775,64.2985,-485.303,0,0
313278.4,63.2224,-481.717,0,0
314580,62.2366,-478.068,0,0
315882,61.314,-474.481,0,0
317183,60.3617,-470.946,0,0
318485,59.4485,-467.409,0,0
319787,58.5937,-463.884,0,0
321088,57.8426,-460.39,0,0
322390,57.1902,-456.942,0,0
323691,56.5632,-453.628,0,0
324993,55.8054,-450.414,0,0
326295,55.1218,-447.14,0,0
327596,54.3834,-443.866,0,0
328898,53.7126,-440.465,0,0
330200,53.1591,-437.129,0,0
331501.125,52.7056,-433.871,0,0
332802.75,52.3302,-430.618,0,0
334104.375,51.9444,-427.438,0,0
335406.0,51.544,-424.348,0,0
336707.625,51.2036,-421.317,0,0
338009.25,50.9113,-418.266,0,0
339310.875,50.5375,-415.208,0,0
340612.5,50.2026,-412.208,0,0
341914.125,50.0159,-409.102,0,0
343215.75,49.9456,-406.124,0,0
344517.375,49.8776,-403.346,0,0
345819.0,49.6265,-400.493,0,0
347121,49.5583,-397.538,0,0
348422,49.6198,-394.661,0,0
349724,49.7009,-391.86,0,0
351025,49.933,-389.172,0,0
352327,50.0767,-386.646,0,0
353629,50.2771,-384.267,0,0
354930,50.3932,-381.973,0,0
356232,50.3868,-379.769,0,0
357534,50.2483,-377.541,0,0
358835,50.0757,-375.144,0,0
360137,49.9637,-372.906,0,0
361438,49.7559,-370.587,0,0
362740.1,49.5468,-368.216,0,0
364041.725,49.3901,-365.773,0,0
365343.35,49.3008,-363.334,0,0
366644.975,49.2579,-360.914,0,0
367946.6,49.2935,-358.559,0,0
369248.225,49.2529,-356.257,0,0
370549.85,49.2357,-353.872,0,0
371851.475,49.3274,-351.557,0,0
373153.1,49.4925,-349.383,0,0
374454.725,49.5006,-347.423,0,0
375756.35,49.2824,-345.466,0,0
377057.975,48.9224,-343.267,0,0
378359.6,48.6141,-340.937,0,0
379661,48.321,-338.536,0,0
380963,48.1025,-336.01,0,0
382264,48.0831,-333.354,0,0
383566,48.3192,-330.89,0,0
384868,48.3115,-328.74,0,0
386169,48.2138,-326.347,0,0
387471,48.1389,-323.897,0,0
388773,48.1074,-321.426,0,0
390074,48.1243,-318.883,0,0
391376,48.1796,-316.364,0,0
392677,48.3083,-313.79,0,0
393979,48.4036,-311.218,0,0
395280.7,48.5355,-308.606,0,0
396582.325,48.7539,-305.954,0,0
397883.95,48.9951,-303.314,0,0
399185.575,49.2564,-300.637,0,0
400006.6,49.4696,-298.931,0,0