File: Accelerated corrosion test data/2025-10-20_13-55-17/sample_1.csv
Frequency (Hz),Impedance (ohms),Phase (Radians),Temperature (C),Humidity (%)
10000.0,240.595,-12237.4,0,0
11301.625,214.611,-10838.3,0,0
12603.25,195.045,-9735.62,0,0
13904.875,183.522,-8807.79,0,0
15206.5,191.91,-8077.23,0,0
16508.125,154.963,-7449.19,0,0
17809.75,147.026,-6910.93,0,0
19111.375,134.982,-6441.24,0,0
20413.0,158.551,-5995.86,0,0
21714.625,136.503,-5678.26,0,0
23016.25,122.106,-5377.14,0,0
24317.875,112.37,-5086.06,0,0
25619.5,104.589,-4820.01,0,0
26921.1,114.996,-4568.43,0,0
28222.7,110.768,-4365.72,0,0
29524.4,107.446,-4199.81,0,0
30826,101.543,-4009.8,0,0
32127.6,97.4235,-3854.3,0,0
33429.2,89.0278,-3708.6,0,0
34730.9,82.4013,-3566.57,0,0
36032.5,77.8415,-3435.26,0,0
37334.1,75.2543,-3312.34,0,0
38635.7,72.8975,-3198.37,0,0
39937.4,70.997,-3091.46,0,0
41239,72.5418,-2992.42,0,0
42540.6,71.007,-2899.69,0,0
43842.225,67.7232,-2812.2,0,0
45143.85,68.3257,-2730.35,0,0
46445.475,64.8644,-2652.44,0,0
47747.1,64.1265,-2579.06,0,0
49048.725,61.5971,-2508.72,0,0
50350.35,59.531,-2442.29,0,0
51651.975,58.5559,-2378.54,0,0
52953.6,57.752,-2317.18,0,0
54255.225,56.5693,-2260.21,0,0
55556.85,55.5332,-2204.62,0,0
56858.475,54.7012,-2151.42,0,0
58160.1,54.374,-2100.53,0,0
59461.7,54.3335,-2052.15,0,0
60763.3,54.2769,-2004.94,0,0
62065,52.9758,-1961.16,0,0
63366.6,52.4153,-1917.53,0,0
64668.2,52.8463,-1875.19,0,0
65969.8,55.0498,-1837.52,0,0
67271.5,53.4577,-1800.84,0,0
68573.1,52.8853,-1765.05,0,0
69874.7,52.142,-1730.75,0,0
71176.3,50.0524,-1696.48,0,0
72478,48.2944,-1662.68,0,0
73779.6,47.969,-1629.22,0,0
75081.2,48.2854,-1596.96,0,0
76382.825,49.0413,-1565.9,0,0
77684.45,50.114,-1536.51,0,0
78986.075,51.7275,-1508.92,0,0
80287.7,50.9075,-1482.58,0,0
81589.325,50.3605,-1454.57,0,0
82890.95,50.8639,-1427.83,0,0
84192.575,52.2907,-1401.47,0,0
85494.2,54.5115,-1376.81,0,0
86795.825,55.3755,-1353.46,0,0
88097.45,55.9046,-1329.96,0,0
89399.075,57.5603,-1305.41,0,0
90700.7,61.0949,-1282.14,0,0
92002.3,66.9507,-1260.69,0,0
93303.9,74.5375,-1243.37,0,0
94605.6,73.6412,-1236.54,0,0
95907.2,67.0456,-1217.82,0,0
97208.8,65.0725,-1197.43,0,0
98510.4,64.5615,-1177.1,0,0
99812.1,63.524,-1157.63,0,0
101114,63.0789,-1137.49,0,0
102415,63.4707,-1115.78,0,0
103717,68.0022,-1094.66,0,0
105019,74.7224,-1077.38,0,0
106320.175,80.6296,-1061.02,0,0
107621.8,86.8428,-1048,0,0
108923.425,91.0745,-1036.57,0,0
110225.05,93.8578,-1027.94,0,0
111526.675,94.2777,-1015.37,0,0
112828.3,97.4726,-1005.54,0,0
114129.925,96.8323,-998.253,0,0
115431.55,93.768,-989.622,0,0
116733.175,88.9022,-978.359,0,0
118034.8,83.8735,-964.43,0,0
119336.425,81.7729,-948.823,0,0
120638.05,82.0247,-934.526,0,0
121939.675,80.283,-921.793,0,0
123241,78.7292,-906.89,0,0
124543,78.7002,-891.924,0,0
125845,79.2613,-877.075,0,0
127146,80.2977,-862.605,0,0
128448,82.4427,-847.844,0,0
129749,84.9149,-833.702,0,0
131051,89.5175,-820.293,0,0
132353,93.9211,-809.33,0,0
133654,97.0829,-798.528,0,0
134956,100.578,-787.906,0,0
136258,103.64,-777.434,0,0
137559,108.894,-767.854,0,0
138860.775,111.401,-762.069,0,0
140162.4,110.946,-754.473,0,0
141464.025,110.106,-744.522,0,0
142765.65,110.376,-733.384,0,0
144067.275,112.191,-721.988,0,0
145368.9,114.122,-711.022,0,0
146670.525,117.442,-700.744,0,0
147972.15,119.619,-692.303,0,0
149273.775,121.022,-681.711,0,0
150575.4,122.981,-673.485,0,0
151877.025,121.454,-662.713,0,0
153178.65,120.907,-647.742,0,0
154480,124.404,-631.504,0,0
155782,130.861,-614.505,0,0
157084,142.509,-599.417,0,0
158385,154.827,-589.686,0,0
159687,163.486,-577.898,0,0
160988,181.781,-566.378,0,0
162290,200.255,-565.305,0,0
163592,211.447,-566.117,0,0
164893,225.104,-565.727,0,0
166195,239.712,-571.538,0,0
167497,248.442,-582.136,0,0
168798,249.033,-595.361,0,0
170100,241.257,-604.257,0,0
171401.375,232.434,-602.777,0,0
172703.0,229.833,-598.745,0,0
174004.625,226.503,-596.05,0,0
175306.25,224.801,-592.906,0,0
176607.875,222.631,-591.538,0,0
177909.5,219.282,-588.254,0,0
179211.125,214.427,-586.134,0,0
180512.75,207.033,-581.716,0,0
181814.375,200.141,-573.632,0,0
183116.0,193.626,-562.283,0,0
184417.625,188.959,-549.776,0,0
185719.25,186.68,-534.771,0,0
187021,186.53,-519.409,0,0
188322,189.849,-503.581,0,0
189624,193.364,-489.719,0,0
190926,196.659,-474.645,0,0
192227,201.957,-457.147,0,0
193529,210.98,-439.662,0,0
194831,221.819,-423.451,0,0
196132,234.944,-406.402,0,0
197434,250.939,-390.945,0,0
198735,267.818,-376.645,0,0
200037,286.33,-360.163,0,0
201339,310.392,-343.739,0,0
202640.35,342.571,-326.039,0,0
203941.975,385.694,-316.217,0,0
205243.6,436.72,-321.831,0,0
206545.225,482.688,-345.992,0,0
207846.85,514.699,-381.742,0,0
209148.475,534.273,-421.505,0,0
210450.1,535.298,-463.091,0,0
211751.725,521.447,-484.427,0,0
213053.35,517.987,-485.335,0,0
214354.975,533.137,-493.124,0,0
215656.6,543.469,-509.459,0,0
216958.225,552.596,-525.507,0,0
218259.85,561.676,-541.48,0,0
219561,575.323,-556.378,0,0
220863,594.205,-579.898,0,0
222165,611.812,-615.067,0,0
223466,617.857,-660.907,0,0
224768,611.15,-709.109,0,0
226070,592.461,-754.547,0,0
227371,562.997,-795.687,0,0
228673,524.202,-828.565,0,0
229974,479.679,-848.203,0,0
231276,436.529,-854.988,0,0
232578,399.313,-851.776,0,0
233879,372.14,-845.504,0,0
235180.95,349.018,-842.408,0,0
236482.575,324.886,-838.565,0,0
237784.2,301.367,-833.941,0,0
239085.825,277.782,-825.181,0,0
240387.45,258.031,-814.169,0,0
241689.075,241.195,-802.664,0,0
242990.7,226.353,-790.487,0,0
244292.325,214.472,-779.134,0,0
245593.95,202.268,-769.295,0,0
246895.575,190.229,-758.113,0,0
248197.2,179.603,-745.79,0,0
249498.825,170.844,-732.993,0,0
250800,163.751,-720.549,0,0
252102,157.692,-708.723,0,0
253404,151.864,-696.711,0,0
254705,147.815,-683.887,0,0
256007,145.463,-672.077,0,0
257309,143.583,-660.614,0,0
258610,142.645,-648.911,0,0
259912,144.258,-637.067,0,0
261213,148.15,-627.337,0,0
262515,152.63,-619.978,0,0
263817,157.652,-614.104,0,0
265118,163.594,-610.167,0,0
266420,170.223,-610.017,0,0
267721.55,174.416,-615.298,0,0
269023.175,171.184,-622.903,0,0
270324.8,161.202,-626.076,0,0
271626.425,150.34,-622.361,0,0
272928.05,142.917,-614.097,0,0
274229.675,139.209,-605.257,0,0
275531.3,138.051,-596.961,0,0
276832.925,138.772,-589.913,0,0
278134.55,140.348,-585.085,0,0
279436.175,140.735,-581.975,0,0
280737.8,140.465,-578.317,0,0
282039.425,140.745,-575.75,0,0
283341,138.991,-573.045,0,0
284643,137.791,-569.909,0,0
285944,135.486,-566.956,0,0
287246,132.33,-562.362,0,0
288548,130.214,-555.132,0,0
289849,132.589,-547.772,0,0
291151,135.397,-544.781,0,0
292452,135.603,-542.191,0,0
293754,134.934,-538.4,0,0
295056,134.966,-533.115,0,0
296357,136.529,-526.939,0,0
297659,140.302,-521.163,0,0
298960.525,145.695,-516.987,0,0
300262.15,151.687,-514.839,0,0
301563.775,157.365,-514.016,0,0
302865.4,163.637,-515.279,0,0
304167.025,168.058,-517.929,0,0
305468.65,172.177,-521.275,0,0
306770.275,176.265,-526.119,0,0
308071.9,177.727,-533.318,0,0
309373.525,176.563,-540.064,0,0
310675.15,174.181,-546.004,0,0
311976.775,170.304,-552.221,0,0
313278.4,163.919,-556.948,0,0
314580,157.838,-559.486,0,0
315882,151.768,-562.308,0,0
317183,144.112,-564.353,0,0
318485,135.772,-564.636,0,0
319787,127.28,-563.093,0,0
321088,119.348,-560.021,0,0
322390,112.126,-555.033,0,0
323691,107.16,-548.86,0,0
324993,104.311,-543.094,0,0
326295,102.784,-538.253,0,0
327596,101.832,-535.056,0,0
328898,100.353,-532.831,0,0
330200,98.2433,-531.171,0,0
331501.125,95.4764,-529.43,0,0
332802.75,92.3071,-527.676,0,0
334104.375,88.4276,-525.583,0,0
335406.0,84.3154,-522.497,0,0
336707.625,80.6973,-518.75,0,0
338009.25,77.4641,-514.857,0,0
339310.875,74.7477,-510.631,0,0
340612.5,72.4029,-506.62,0,0
341914.125,70.1572,-502.686,0,0
343215.75,67.8689,-498.788,0,0
344517.375,65.7105,-494.748,0,0
345819.0,63.6404,-490.584,0,0
347121,61.6358,-486.094,0,0
348422,60.1429,-481.361,0,0
349724,59.1296,-476.865,0,0
351025,58.2033,-472.416,0,0
352327,57.6969,-467.993,0,0
353629,57.2181,-463.974,0,0
354930,56.8337,-459.96,0,0
356232,56.5971,-456.009,0,0
357534,56.3773,-452.16,0,0
358835,56.1559,-448.276,0,0
360137,56.2607,-444.344,0,0
361438,56.5485,-440.717,0,0
362740.1,56.7089,-436.986,0,0
364041.725,57.0378,-433.3,0,0
365343.35,57.6173,-429.605,0,0
366644.975,58.2312,-426.337,0,0
367946.6,58.4513,-422.639,0,0
369248.225,59.2636,-418.289,0,0
370549.85,61.0536,-414.009,0,0
371851.475,63.7669,-410.119,0,0
373153.1,67.02,-407.469,0,0
374454.725,70.1469,-405.765,0,0
375756.35,72.8586,-404.771,0,0
377057.975,75.1301,-404.186,0,0
378359.6,77.1463,-403.975,0,0
379661,78.5685,-403.844,0,0
380963,80.2736,-403.448,0,0
382264,82.267,-404.384,0,0
383566,83.2599,-406.342,0,0
384868,82.5195,-408.65,0,0
386169,80.3418,-410.053,0,0
387471,77.6135,-410.421,0,0
388773,74.7627,-409.561,0,0
390074,72.5934,-407.852,0,0
391376,71.1085,-406.4,0,0
392677,69.2895,-405.334,0,0
393979,66.854,-403.863,0,0
395280.7,64.3662,-401.637,0,0
396582.325,62.0218,-398.661,0,0
397883.95,60.3059,-395.138,0,0
399185.575,59.3321,-391.477,0,0
400006.6,59.0286,-389.281,0,0