File: Accelerated corrosion test data/2025-10-20_13-55-17/sample_3.csv
Frequency (Hz),Impedance (ohms),Phase (Radians),Temperature (C),Humidity (%)
10000.0,253.654,-11897,0,0
11301.625,225.734,-10538.3,0,0
12603.25,204.522,-9457.71,0,0
13904.875,187.532,-8576.96,0,0
15206.5,176.33,-7838.86,0,0
16508.125,162.528,-7239.85,0,0
17809.75,157.375,-6707.3,0,0
19111.375,147.461,-6251.62,0,0
20413.0,164.534,-5849.44,0,0
21714.625,140.419,-5522.67,0,0
23016.25,129.158,-5215.04,0,0
24317.875,121.404,-4933.37,0,0
25619.5,114.404,-4683.7,0,0
26921.1,109.798,-4451.57,0,0
28222.7,105.213,-4242.21,0,0
29524.4,110.902,-4064.68,0,0
30826,102.102,-3890.91,0,0
32127.6,102.615,-3723.87,0,0
33429.2,99.863,-3600.16,0,0
34730.9,88.6281,-3460.63,0,0
36032.5,84.0375,-3331.32,0,0
37334.1,80.9649,-3212.4,0,0
38635.7,78.4588,-3101.33,0,0
39937.4,76.4257,-2997.73,0,0
41239,74.8606,-2900.04,0,0
42540.6,73.6693,-2809.37,0,0
43842.225,72.4649,-2723.34,0,0
45143.85,71.6323,-2642.84,0,0
46445.475,70.2205,-2566.41,0,0
47747.1,70.8109,-2493.46,0,0
49048.725,68.8964,-2427.45,0,0
50350.35,66.9076,-2361.46,0,0
51651.975,66.478,-2298.22,0,0
52953.6,66.6648,-2237.98,0,0
54255.225,69.36,-2182.55,0,0
55556.85,67.2485,-2134.57,0,0
56858.475,61.887,-2081.4,0,0
58160.1,61.3149,-2028.92,0,0
59461.7,61.9122,-1979.19,0,0
60763.3,63.2127,-1932.19,0,0
62065,65.1104,-1886.8,0,0
63366.6,68.9553,-1842.88,0,0
64668.2,77.641,-1800.45,0,0
65969.8,92.5926,-1774.45,0,0
67271.5,75.6365,-1749.2,0,0
68573.1,76.2228,-1711.17,0,0
69874.7,77.0604,-1681.33,0,0
71176.3,71.6753,-1650.78,0,0
72478,70.6589,-1617.67,0,0
73779.6,69.4177,-1589.66,0,0
75081.2,65.7132,-1561.75,0,0
76382.825,61.8399,-1532.48,0,0
77684.45,59.0225,-1503.48,0,0
78986.075,56.594,-1474.77,0,0
80287.7,54.9391,-1446.43,0,0
81589.325,53.7616,-1418.97,0,0
82890.95,53.133,-1392.31,0,0
84192.575,52.7919,-1366.42,0,0
85494.2,52.5995,-1341.23,0,0
86795.825,52.7834,-1316.8,0,0
88097.45,53.096,-1292.76,0,0
89399.075,54.3961,-1268.66,0,0
90700.7,56.3553,-1246.95,0,0
92002.3,58.2884,-1226.01,0,0
93303.9,60.8876,-1206.6,0,0
94605.6,61.7175,-1191.71,0,0
95907.2,56.7931,-1173.43,0,0
97208.8,55.4752,-1151.98,0,0
98510.4,55.3074,-1131.81,0,0
99812.1,55.1187,-1112.51,0,0
101114,54.9316,-1092.67,0,0
102415,56.4601,-1072.07,0,0
103717,60.0768,-1054.3,0,0
105019,63.4554,-1039.62,0,0
106320.175,63.4148,-1025.77,0,0
107621.8,61.7041,-1010.26,0,0
108923.425,59.7537,-993.268,0,0
110225.05,59.5682,-974.943,0,0
111526.675,61.7278,-956.734,0,0
112828.3,63.8427,-940.858,0,0
114129.925,64.9852,-924.933,0,0
115431.55,66.6723,-907.954,0,0
116733.175,70.0174,-891.105,0,0
118034.8,75.8889,-874.251,0,0
119336.425,82.8432,-861.576,0,0
120638.05,89.7931,-855.796,0,0
121939.675,86.0072,-847.286,0,0
123241,86.5358,-833.235,0,0
124543,88.5086,-821.3,0,0
125845,90.6253,-810.587,0,0
127146,90.8846,-800.794,0,0
128448,89.8446,-790.755,0,0
129749,88.7398,-778.292,0,0
131051,89.8306,-766.39,0,0
132353,88.5683,-755.579,0,0
133654,87.49,-743.835,0,0
134956,85.915,-731.223,0,0
136258,84.3591,-717.965,0,0
137559,83.7063,-702.793,0,0
138860.775,85.1494,-689.302,0,0
140162.4,84.5233,-676.124,0,0
141464.025,83.4794,-662.381,0,0
142765.65,82.2661,-646.255,0,0
144067.275,82.4113,-628.982,0,0
145368.9,83.974,-611.04,0,0
146670.525,86.2056,-592.17,0,0
147972.15,90.3224,-572.444,0,0
149273.775,96.3706,-552.022,0,0
150575.4,106.328,-531.898,0,0
151877.025,118.5,-514.541,0,0
153178.65,130.35,-500.621,0,0
154480,140.436,-487.161,0,0
155782,149.785,-472.018,0,0
157084,161.364,-454.699,0,0
158385,176.702,-443.976,0,0
159687,181.48,-429.392,0,0
160988,194.436,-404.503,0,0
162290,216.723,-377.553,0,0
163592,249.6,-352.022,0,0
164893,297.929,-338.186,0,0
166195,350.235,-346.426,0,0
167497,392.53,-375.337,0,0
168798,414.941,-410.775,0,0
170100,416.767,-448.283,0,0
171401.375,408.885,-461.939,0,0
172703.0,409.865,-469.319,0,0
174004.625,416.344,-481.341,0,0
175306.25,422.722,-496.579,0,0
176607.875,423.46,-524.083,0,0
177909.5,394.884,-545.285,0,0
179211.125,369.003,-534.582,0,0
180512.75,366.218,-519.959,0,0
181814.375,371.96,-517.078,0,0
183116.0,368.444,-524.644,0,0
184417.625,355.517,-526.889,0,0
185719.25,338.118,-518.402,0,0
187021,329.303,-497.277,0,0
188322,330.209,-479.706,0,0
189624,332.394,-461.231,0,0
190926,341.915,-444.717,0,0
192227,350.07,-430.796,0,0
193529,361.887,-411.248,0,0
194831,382.789,-396.046,0,0
196132,411.493,-385.121,0,0
197434,438.248,-392.244,0,0
198735,452.475,-402.75,0,0
200037,458.498,-405.089,0,0
201339,467.259,-394.962,0,0
202640.35,491.758,-385.37,0,0
203941.975,521.481,-387.678,0,0
205243.6,546.904,-402.37,0,0
206545.225,559.739,-411.56,0,0
207846.85,582.915,-411.143,0,0
209148.475,618.503,-422.241,0,0
210450.1,649.559,-444.416,0,0
211751.725,677.582,-476.245,0,0
213053.35,700.368,-511.924,0,0
214354.975,713.705,-556.392,0,0
215656.6,719.059,-599.034,0,0
216958.225,718.525,-644,0,0
218259.85,706.557,-688.651,0,0
219561,689.548,-725.12,0,0
220863,672.67,-761.757,0,0
222165,645.842,-802.53,0,0
223466,600.678,-830.668,0,0
224768,560.336,-836.088,0,0
226070,535.735,-836.908,0,0
227371,517.254,-844.804,0,0
228673,491.428,-855.498,0,0
229974,465.981,-862.776,0,0
231276,437.219,-866.662,0,0
232578,410.515,-865.642,0,0
233879,386.149,-862.948,0,0
235180.95,363.663,-859.479,0,0
236482.575,338.857,-855.936,0,0
237784.2,314.128,-848.142,0,0
239085.825,290.871,-835.618,0,0
240387.45,271.271,-820.516,0,0
241689.075,254.531,-802.583,0,0
242990.7,245.005,-783.156,0,0
244292.325,239.101,-770.466,0,0
245593.95,231.004,-756.906,0,0
246895.575,225.796,-743.201,0,0
248197.2,221.375,-730.389,0,0
249498.825,221.305,-718.83,0,0
250800,219.598,-712.513,0,0
252102,214.327,-705.895,0,0
253404,207.522,-696.476,0,0
254705,201.958,-682.925,0,0
256007,200.731,-667.067,0,0
257309,205.837,-652.309,0,0
258610,213.809,-640.687,0,0
259912,226.302,-632.446,0,0
261213,243.372,-632.158,0,0
262515,253.793,-646.122,0,0
263817,251.793,-660.348,0,0
265118,242.82,-670.561,0,0
266420,228.688,-676.131,0,0
267721.55,213.16,-672.641,0,0
269023.175,202.304,-664.429,0,0
270324.8,195.491,-654.042,0,0
271626.425,192.848,-644.324,0,0
272928.05,191.008,-636.79,0,0
274229.675,189.937,-627.686,0,0
275531.3,192.351,-618.262,0,0
276832.925,199.01,-611.344,0,0
278134.55,207.133,-609.917,0,0
279436.175,213.593,-613.854,0,0
280737.8,215.144,-621.257,0,0
282039.425,211.344,-627.952,0,0
283341,204.164,-631.736,0,0
284643,196.28,-632.002,0,0
285944,188.72,-629.548,0,0
287246,183.146,-625.058,0,0
288548,179.453,-620.328,0,0
289849,178.459,-616.192,0,0
291151,176.572,-615.299,0,0
292452,172.084,-613.696,0,0
293754,168.084,-608.749,0,0
295056,167.658,-603.393,0,0
296357,169.277,-601.274,0,0
297659,169.548,-602.043,0,0
298960.525,167.478,-603.661,0,0
300262.15,163.49,-605.102,0,0
301563.775,157.801,-605.378,0,0
302865.4,151.366,-603.629,0,0
304167.025,145.602,-600.39,0,0
305468.65,140.626,-596.033,0,0
306770.275,136.796,-591.299,0,0
308071.9,134.117,-586.513,0,0
309373.525,132.433,-582.515,0,0
310675.15,130.858,-579.881,0,0
311976.775,127.681,-578.032,0,0
313278.4,123.003,-574.847,0,0
314580,118.82,-569.325,0,0
315882,116.946,-562.81,0,0
317183,117.01,-557.481,0,0
318485,117.355,-553.516,0,0
319787,117.538,-550.349,0,0
321088,117.616,-547.184,0,0
322390,118.92,-544.508,0,0
323691,120.432,-544.241,0,0
324993,119.776,-545.7,0,0
326295,116.822,-547.02,0,0
327596,112.419,-546.927,0,0
328898,107.587,-545.339,0,0
330200,103.362,-542.824,0,0
331501.125,99.0692,-540.152,0,0
332802.75,94.4966,-536.627,0,0
334104.375,90.1917,-532.402,0,0
335406.0,86.1187,-527.206,0,0
336707.625,83.0815,-521.362,0,0
338009.25,80.7742,-515.218,0,0
339310.875,79.1498,-509.008,0,0
340612.5,78.619,-502.122,0,0
341914.125,80.0616,-495.643,0,0
343215.75,82.8502,-491.174,0,0
344517.375,85.0833,-488.821,0,0
345819.0,85.8592,-487.461,0,0
347121,85.2419,-485.886,0,0
348422,83.7661,-483.142,0,0
349724,83.0399,-479.116,0,0
351025,84.0516,-475.207,0,0
352327,85.6709,-473.137,0,0
353629,86.1849,-472.299,0,0
354930,85.211,-471.277,0,0
356232,83.5525,-469.456,0,0
357534,81.841,-466.592,0,0
358835,81.1582,-462.977,0,0
360137,81.1734,-459.951,0,0
361438,80.9407,-457.481,0,0
362740.1,80.1795,-454.416,0,0
364041.725,80.9054,-450.894,0,0
365343.35,82.3178,-448.479,0,0
366644.975,83.4288,-447.921,0,0
367946.6,82.2479,-447.846,0,0
369248.225,79.6056,-445.641,0,0
370549.85,78.934,-441.402,0,0
371851.475,80.4183,-438.76,0,0
373153.1,80.6596,-438.321,0,0
374454.725,78.9236,-437,0,0
375756.35,77.2986,-434.285,0,0
377057.975,76.4806,-430.805,0,0
378359.6,76.7027,-427.331,0,0
379661,77.7773,-424.717,0,0
380963,78.4198,-423.366,0,0
382264,78.4043,-421.845,0,0
383566,78.1329,-420.69,0,0
384868,76.9579,-419.357,0,0
386169,75.497,-417.206,0,0
387471,73.9422,-414.376,0,0
388773,72.784,-410.652,0,0
390074,72.6695,-406.317,0,0
391376,73.9506,-402.078,0,0
392677,76.1658,-398.883,0,0
393979,78.4076,-396.86,0,0
395280.7,80.5579,-395.442,0,0
396582.325,82.4812,-394.855,0,0
397883.95,83.8086,-394.969,0,0
399185.575,84.3291,-395.539,0,0
400006.6,84.0436,-396.022,0,0