File: Accelerated corrosion test data/2025-10-20_13-55-17/sample_7.csv
Frequency (Hz),Impedance (ohms),Phase (Radians),Temperature (C),Humidity (%)
10000.0,274.533,-12102.7,0,0
11301.625,246.955,-10705.7,0,0
12603.25,262.37,-9661.85,0,0
13904.875,208.076,-8762.58,0,0
15206.5,197.649,-8020.31,0,0
16508.125,171.517,-7380.29,0,0
17809.75,166.359,-6824.98,0,0
19111.375,183.617,-6386.93,0,0
20413.0,171.854,-5983.1,0,0
21714.625,157.633,-5647.95,0,0
23016.25,129.913,-5323.51,0,0
24317.875,122.046,-5030.24,0,0
25619.5,117.35,-4765.94,0,0
26921.1,120.304,-4520.8,0,0
28222.7,177.115,-4293.76,0,0
29524.4,141.721,-4184.91,0,0
30826,130.684,-3993.39,0,0
32127.6,117.902,-3844.79,0,0
33429.2,101.363,-3695.07,0,0
34730.9,91.8557,-3549.64,0,0
36032.5,87.9953,-3415.59,0,0
37334.1,85.8121,-3291.73,0,0
38635.7,86.1683,-3174.08,0,0
39937.4,100.383,-3074.49,0,0
41239,87.0865,-2988.61,0,0
42540.6,79.4707,-2892.37,0,0
43842.225,78.3574,-2802.78,0,0
45143.85,80.2983,-2725.71,0,0
46445.475,77.1239,-2652.55,0,0
47747.1,70.1321,-2576.32,0,0
49048.725,67.3974,-2505.67,0,0
50350.35,65.5748,-2438.42,0,0
51651.975,64.2102,-2374.85,0,0
52953.6,63.3761,-2314.25,0,0
54255.225,62.0172,-2257.65,0,0
55556.85,60.4854,-2202.95,0,0
56858.475,59.6437,-2150.34,0,0
58160.1,58.8103,-2100,0,0
59461.7,58.9238,-2052.52,0,0
60763.3,58.501,-2008.49,0,0
62065,56.3322,-1965.1,0,0
63366.6,55.17,-1922.32,0,0
64668.2,54.4498,-1881.58,0,0
65969.8,54.5974,-1843.07,0,0
67271.5,52.7732,-1806.31,0,0
68573.1,51.6936,-1769.54,0,0
69874.7,50.9597,-1734.42,0,0
71176.3,50.7474,-1700.58,0,0
72478,49.7429,-1668.24,0,0
73779.6,48.9221,-1636.45,0,0
75081.2,48.3635,-1605.71,0,0
76382.825,47.8583,-1575.92,0,0
77684.45,47.5252,-1547.01,0,0
78986.075,47.2465,-1519.02,0,0
80287.7,47.1153,-1492.02,0,0
81589.325,46.6769,-1465.83,0,0
82890.95,46.4259,-1440.08,0,0
84192.575,46.4191,-1414.98,0,0
85494.2,46.6596,-1390.9,0,0
86795.825,46.6932,-1367.63,0,0
88097.45,46.7541,-1344.94,0,0
89399.075,46.1683,-1322.69,0,0
90700.7,46.0761,-1300.43,0,0
92002.3,46.3734,-1278.64,0,0
93303.9,46.7999,-1256.73,0,0
94605.6,50.7432,-1237.07,0,0
95907.2,49.1791,-1220.26,0,0
97208.8,48.5402,-1199.93,0,0
98510.4,49.278,-1180.81,0,0
99812.1,48.9537,-1162.36,0,0
101114,50.2493,-1142.93,0,0
102415,52.1126,-1124.83,0,0
103717,54.881,-1108.02,0,0
105019,55.9772,-1093.11,0,0
106320.175,55.1091,-1077.3,0,0
107621.8,55.9417,-1060.52,0,0
108923.425,57.1055,-1044.13,0,0
110225.05,57.644,-1027.41,0,0
111526.675,60.8622,-1010.11,0,0
112828.3,65.4019,-993.506,0,0
114129.925,71.0463,-979.606,0,0
115431.55,77.8407,-967.007,0,0
116733.175,86.4549,-958.259,0,0
118034.8,91.1768,-954.414,0,0
119336.425,93.3858,-952.767,0,0
120638.05,86.3921,-953.232,0,0
121939.675,74.6975,-943.198,0,0
123241,67.14,-930.425,0,0
124543,62.2114,-915.456,0,0
125845,58.0102,-901.906,0,0
127146,54.2721,-886.974,0,0
128448,52.5069,-871.597,0,0
129749,50.893,-857.092,0,0
131051,49.7941,-842.744,0,0
132353,48.5927,-827.408,0,0
133654,49.1385,-811.605,0,0
134956,52.118,-796.934,0,0
136258,56.4758,-784.868,0,0
137559,56.0851,-777.016,0,0
138860.775,53.7196,-764.315,0,0
140162.4,53.425,-750.022,0,0
141464.025,53.539,-736.622,0,0
142765.65,54.5398,-722.043,0,0
144067.275,57.3623,-708.262,0,0
145368.9,59.3689,-696.526,0,0
146670.525,60.3451,-683.417,0,0
147972.15,61.7219,-670.732,0,0
149273.775,62.1214,-657.908,0,0
150575.4,61.8544,-642.733,0,0
151877.025,63.2011,-625.259,0,0
153178.65,66.8625,-607.1,0,0
154480,72.2804,-588.778,0,0
155782,80.2683,-570.007,0,0
157084,90.9066,-552.618,0,0
158385,104.255,-538.192,0,0
159687,114.431,-529.122,0,0
160988,117.926,-515.464,0,0
162290,124.488,-492.335,0,0
163592,139.973,-467.15,0,0
164893,163.281,-444.861,0,0
166195,189.041,-419.998,0,0
167497,233.197,-395.942,0,0
168798,294.246,-388.93,0,0
170100,357.622,-411.364,0,0
171401.375,412.351,-459.56,0,0
172703.0,440.523,-532.218,0,0
174004.625,421.015,-609.972,0,0
175306.25,364.227,-642.083,0,0
176607.875,333.001,-632.604,0,0
177909.5,332.06,-629.053,0,0
179211.125,341.528,-659.946,0,0
180512.75,306.263,-687.989,0,0
181814.375,268.315,-700.72,0,0
183116.0,224.171,-697.701,0,0
184417.625,191.337,-674.708,0,0
185719.25,171.078,-651.758,0,0
187021,154.396,-624.6,0,0
188322,149.435,-598.72,0,0
189624,143.423,-580.721,0,0
190926,136.377,-557.729,0,0
192227,135.279,-532.708,0,0
193529,137.297,-507.25,0,0
194831,143.929,-483.25,0,0
196132,154.545,-462.025,0,0
197434,166.57,-444.054,0,0
198735,176.013,-428.578,0,0
200037,184.773,-409.5,0,0
201339,198.044,-387.072,0,0
202640.35,217.282,-362.699,0,0
203941.975,243.834,-342.075,0,0
205243.6,275.742,-323.744,0,0
206545.225,317.828,-315.408,0,0
207846.85,351.613,-318.394,0,0
209148.475,386.828,-311.34,0,0
210450.1,445.664,-316.181,0,0
211751.725,497.377,-358.61,0,0
213053.35,522.374,-406.923,0,0
214354.975,537.754,-451.529,0,0
215656.6,539.884,-500.085,0,0
216958.225,536.979,-544.765,0,0
218259.85,514.255,-590.232,0,0
219561,474.358,-621.415,0,0
220863,434.758,-621.269,0,0
222165,414.154,-611.001,0,0
223466,407.202,-602.709,0,0
224768,403.147,-599.325,0,0
226070,403.673,-592.24,0,0
227371,414.185,-594.307,0,0
228673,424.897,-604.888,0,0
229974,430.021,-625.559,0,0
231276,429.545,-651.829,0,0
232578,419.263,-677.76,0,0
233879,397.489,-710.516,0,0
235180.95,353.661,-725.859,0,0
236482.575,316.73,-717.111,0,0
237784.2,291.416,-707.271,0,0
239085.825,268.906,-687.718,0,0
240387.45,265.419,-669.656,0,0
241689.075,256.92,-667.325,0,0
242990.7,239.313,-656.698,0,0
244292.325,232.371,-635.938,0,0
245593.95,237.218,-623.338,0,0
246895.575,234.662,-618.649,0,0
248197.2,229.244,-609.106,0,0
249498.825,227.38,-596.172,0,0
250800,230.687,-582.363,0,0
252102,239.695,-570.88,0,0
253404,254.263,-566.243,0,0
254705,266.311,-572.619,0,0
256007,269.834,-582.763,0,0
257309,265.768,-590.664,0,0
258610,259.332,-591.745,0,0
259912,256.888,-592.532,0,0
261213,251.39,-591.11,0,0
262515,249.477,-585.409,0,0
263817,255.669,-582.156,0,0
265118,259.971,-587.91,0,0
266420,260.06,-593.158,0,0
267721.55,258.405,-600.549,0,0
269023.175,250.76,-606.159,0,0
270324.8,245.049,-604.375,0,0
271626.425,248.703,-602.838,0,0
272928.05,257.986,-616.934,0,0
274229.675,247.277,-644.294,0,0
275531.3,217.505,-660.931,0,0
276832.925,181.131,-657.551,0,0
278134.55,154.009,-638.131,0,0
279436.175,141.113,-614.158,0,0
280737.8,137.365,-593.718,0,0
282039.425,136.904,-580.074,0,0
283341,133.832,-566.168,0,0
284643,135.024,-549.43,0,0
285944,142.364,-536.634,0,0
287246,149.707,-529.942,0,0
288548,152.454,-526.438,0,0
289849,152.985,-518.928,0,0
291151,156.795,-508.836,0,0
292452,163.505,-501.182,0,0
293754,171.466,-494.261,0,0
295056,180.097,-488.796,0,0
296357,191.238,-483.881,0,0
297659,204.856,-481.487,0,0
298960.525,219.984,-483.261,0,0
300262.15,236.8,-488.763,0,0
301563.775,255.307,-501.528,0,0
302865.4,270.718,-527.495,0,0
304167.025,267.771,-561.023,0,0
305468.65,251.934,-585.462,0,0
306770.275,230.773,-602.459,0,0
308071.9,207.146,-610.187,0,0
309373.525,184.57,-610.487,0,0
310675.15,166.641,-604.525,0,0
311976.775,153.346,-597.889,0,0
313278.4,141.852,-591.175,0,0
314580,131.193,-582.928,0,0
315882,123.618,-572.81,0,0
317183,119.45,-563.664,0,0
318485,116.45,-556.163,0,0
319787,114.432,-549.309,0,0
321088,113.136,-544.075,0,0
322390,111.419,-539.606,0,0
323691,109.76,-535.557,0,0
324993,107.871,-531.782,0,0
326295,106.709,-527.876,0,0
327596,105.912,-525.688,0,0
328898,103.558,-524.378,0,0
330200,100.434,-522.65,0,0
331501.125,96.7494,-520.908,0,0
332802.75,91.821,-518.873,0,0
334104.375,86.3557,-515.345,0,0
335406.0,81.1979,-510.651,0,0
336707.625,76.4896,-505.15,0,0
338009.25,72.4095,-498.831,0,0
339310.875,69.4342,-492.227,0,0
340612.5,67.0077,-485.551,0,0
341914.125,65.1481,-478.56,0,0
343215.75,64.4132,-471.52,0,0
344517.375,64.7803,-464.876,0,0
345819.0,65.9609,-459.482,0,0
347121,66.5832,-455.592,0,0
348422,65.7938,-451.769,0,0
349724,64.5344,-446.784,0,0
351025,63.7817,-441.138,0,0
352327,64.0373,-434.592,0,0
353629,65.9689,-428.565,0,0
354930,68.5685,-424.095,0,0
356232,70.9266,-421.065,0,0
357534,71.5894,-419.104,0,0
358835,70.4691,-415.909,0,0
360137,69.709,-410.742,0,0
361438,70.3782,-404.772,0,0
362740.1,72.5716,-398.988,0,0
364041.725,75.484,-394.054,0,0
365343.35,79.111,-389.85,0,0
366644.975,82.7981,-387.086,0,0
367946.6,85.9315,-384.688,0,0
369248.225,89.2091,-383.008,0,0
370549.85,91.8669,-382.539,0,0
371851.475,92.2647,-382.21,0,0
373153.1,92.0724,-379.732,0,0
374454.725,93.1878,-376.472,0,0
375756.35,95.0955,-373.744,0,0
377057.975,96.6172,-371.742,0,0
378359.6,97.4684,-369.023,0,0
379661,99.2403,-365.588,0,0
380963,101.584,-362.763,0,0
382264,103.997,-359.93,0,0
383566,106.783,-357.431,0,0
384868,109.537,-355.137,0,0
386169,112.173,-353.036,0,0
387471,114.909,-350.616,0,0
388773,117.648,-347.621,0,0
390074,122.38,-344.357,0,0
391376,127.705,-342.643,0,0
392677,132.938,-341.693,0,0
393979,137.808,-341.296,0,0
395280.7,142.8,-339.977,0,0
396582.325,149.821,-338.523,0,0
397883.95,159.804,-338.646,0,0
399185.575,171.922,-343.213,0,0
400006.6,179.462,-349.704,0,0