File: Accelerated corrosion test data/2025-10-07_06-00-03/sample_1.csv
Frequency (Hz),Impedance (ohms),Phase (Radians),Temperature (C),Humidity (%)
10000.0,239.743,-12187.6,0,0
11301.625,213.584,-10794.6,0,0
12603.25,194.278,-9695.99,0,0
13904.875,181.101,-8773.59,0,0
15206.5,181.686,-8043.2,0,0
16508.125,155.063,-7418.06,0,0
17809.75,146.526,-6884.08,0,0
19111.375,135.769,-6415.38,0,0
20413.0,154.408,-5974.11,0,0
21714.625,138.85,-5660.75,0,0
23016.25,122.467,-5354.09,0,0
24317.875,112.389,-5062.74,0,0
25619.5,104.822,-4798.22,0,0
26921.1,113.51,-4550.69,0,0
28222.7,110.572,-4346.31,0,0
29524.4,107.037,-4180.39,0,0
30826,100.801,-3994,0,0
32127.6,98.1376,-3835.2,0,0
33429.2,88.9291,-3692.76,0,0
34730.9,81.843,-3550.43,0,0
36032.5,77.7041,-3419.98,0,0
37334.1,74.9305,-3297.98,0,0
38635.7,72.7429,-3184.27,0,0
39937.4,70.8767,-3077.81,0,0
41239,72.1768,-2978.77,0,0
42540.6,70.3551,-2886.92,0,0
43842.225,67.7819,-2800.05,0,0
45143.85,68.4607,-2718.91,0,0
46445.475,65.6499,-2642.63,0,0
47747.1,63.7703,-2569.28,0,0
49048.725,61.2638,-2498.98,0,0
50350.35,59.755,-2432.45,0,0
51651.975,58.6735,-2368.92,0,0
52953.6,57.6926,-2307.96,0,0
54255.225,56.723,-2251.08,0,0
55556.85,55.9612,-2195.88,0,0
56858.475,54.8012,-2143.02,0,0
58160.1,54.6624,-2092.36,0,0
59461.7,54.4444,-2044.39,0,0
60763.3,54.473,-1998.47,0,0
62065,53.141,-1954.71,0,0
63366.6,52.5293,-1911.21,0,0
64668.2,52.9335,-1869.21,0,0
65969.8,55.1658,-1831.47,0,0
67271.5,53.5799,-1794.9,0,0
68573.1,53.2771,-1759.36,0,0
69874.7,52.1555,-1725.63,0,0
71176.3,50.4003,-1690.98,0,0
72478,48.5367,-1657.4,0,0
73779.6,48.1278,-1623.92,0,0
75081.2,48.5356,-1591.83,0,0
76382.825,49.3115,-1560.72,0,0
77684.45,50.1757,-1531.44,0,0
78986.075,51.9348,-1503.78,0,0
80287.7,51.1897,-1477.46,0,0
81589.325,50.7828,-1449.64,0,0
82890.95,51.2565,-1422.86,0,0
84192.575,52.7746,-1396.68,0,0
85494.2,55.064,-1372.25,0,0
86795.825,56.0565,-1348.91,0,0
88097.45,56.4248,-1325.88,0,0
89399.075,57.8168,-1301.41,0,0
90700.7,61.6,-1277.94,0,0
92002.3,67.9338,-1256.86,0,0
93303.9,74.9314,-1240.13,0,0
94605.6,73.4081,-1232.75,0,0
95907.2,67.0889,-1214.35,0,0
97208.8,64.649,-1193.83,0,0
98510.4,64.2849,-1173.53,0,0
99812.1,63.0679,-1153.3,0,0
101114,63.5499,-1133.52,0,0
102415,63.0112,-1111.98,0,0
103717,68.0472,-1090.76,0,0
105019,74.7164,-1073.13,0,0
106320.175,81.216,-1057.07,0,0
107621.8,87.8291,-1044.63,0,0
108923.425,92.4267,-1033.76,0,0
110225.05,93.7606,-1025.54,0,0
111526.675,94.3555,-1013.25,0,0
112828.3,96.2242,-1003.63,0,0
114129.925,95.4513,-995.964,0,0
115431.55,91.4666,-986.443,0,0
116733.175,86.4235,-973.961,0,0
118034.8,82.5391,-959.214,0,0
119336.425,81.1166,-943.628,0,0
120638.05,81.8786,-929.785,0,0
121939.675,80.6592,-917.082,0,0
123241,79.1045,-902.791,0,0
124543,78.8337,-887.766,0,0
125845,79.5133,-873.112,0,0
127146,80.6692,-858.747,0,0
128448,82.588,-844.131,0,0
129749,85.3934,-829.7,0,0
131051,90.5381,-816.769,0,0
132353,94.6489,-806.272,0,0
133654,97.7481,-795.929,0,0
134956,99.9641,-785.56,0,0
136258,103.204,-774.475,0,0
137559,107.854,-764.689,0,0
138860.775,110.224,-758.986,0,0
140162.4,109.72,-750.714,0,0
141464.025,109.52,-740.169,0,0
142765.65,110.368,-729.265,0,0
144067.275,111.625,-718.291,0,0
145368.9,113.9,-707.048,0,0
146670.525,116.79,-696.275,0,0
147972.15,119.262,-686.963,0,0
149273.775,121.82,-677.607,0,0
150575.4,122.649,-668.907,0,0
151877.025,121.711,-657.415,0,0
153178.65,122.042,-642.462,0,0
154480,125.812,-626.294,0,0
155782,133.349,-609.657,0,0
157084,145.146,-594.686,0,0
158385,157.725,-585.373,0,0
159687,168.227,-574.78,0,0
160988,185.605,-564.589,0,0
162290,202.809,-564.279,0,0
163592,216.341,-564.958,0,0
164893,228.434,-567.49,0,0
166195,241.876,-574.689,0,0
167497,247.101,-587.631,0,0
168798,244.038,-598.317,0,0
170100,235.836,-603.432,0,0
171401.375,228.649,-602.075,0,0
172703.0,222.508,-598.513,0,0
174004.625,218.432,-591.947,0,0
175306.25,218.554,-585.403,0,0
176607.875,219.055,-583.02,0,0
177909.5,217.093,-580.509,0,0
179211.125,213.358,-577.659,0,0
180512.75,207.589,-575.094,0,0
181814.375,199.598,-566.614,0,0
183116.0,192.979,-556.762,0,0
184417.625,187.353,-542.014,0,0
185719.25,186.538,-525.957,0,0
187021,188.171,-511.025,0,0
188322,190.751,-496.594,0,0
189624,193.927,-480.704,0,0
190926,199.726,-465.001,0,0
192227,206.507,-448.905,0,0
193529,214.975,-433.09,0,0
194831,224.858,-416.388,0,0
196132,237.573,-398.768,0,0
197434,253.966,-380.595,0,0
198735,274.74,-365.118,0,0
200037,295.324,-350.766,0,0
201339,321.413,-333.353,0,0
202640.35,357.295,-319.686,0,0
203941.975,399.836,-313.341,0,0
205243.6,451.683,-321.403,0,0
206545.225,495.357,-349.677,0,0
207846.85,524.349,-388.886,0,0
209148.475,538.384,-428.476,0,0
210450.1,536.381,-462.929,0,0
211751.725,527.533,-482.669,0,0
213053.35,527.093,-487.356,0,0
214354.975,536.492,-497.581,0,0
215656.6,546.962,-510.901,0,0
216958.225,554.258,-524.763,0,0
218259.85,570.798,-538.333,0,0
219561,585.111,-558.41,0,0
220863,603.168,-583.356,0,0
222165,620.504,-621.364,0,0
223466,624.497,-668.762,0,0
224768,616.822,-716.709,0,0
226070,598.988,-765.478,0,0
227371,565.25,-809.754,0,0
228673,520.348,-841.53,0,0
229974,473.23,-857.081,0,0
231276,430.121,-860.268,0,0
232578,395.239,-855.886,0,0
233879,367.133,-851.482,0,0
235180.95,341.025,-845.428,0,0
236482.575,317.73,-839.951,0,0
237784.2,295.373,-832.79,0,0
239085.825,274.155,-824.824,0,0
240387.45,253.61,-813.937,0,0
241689.075,237.183,-801.857,0,0
242990.7,222.594,-789.823,0,0
244292.325,210.293,-778.154,0,0
245593.95,198.461,-767.072,0,0
246895.575,187.051,-755.683,0,0
248197.2,177.155,-743.076,0,0
249498.825,168.965,-730.82,0,0
250800,161.746,-718.679,0,0
252102,155.218,-706.638,0,0
253404,149.823,-694.127,0,0
254705,145.739,-681.208,0,0
256007,143.694,-668.906,0,0
257309,142.229,-657.362,0,0
258610,141.897,-645.414,0,0
259912,144.144,-633.954,0,0
261213,148.139,-624.544,0,0
262515,152.834,-617.443,0,0
263817,158.018,-611.495,0,0
265118,164.588,-608.312,0,0
266420,171.02,-609.573,0,0
267721.55,173.398,-615.598,0,0
269023.175,168.296,-621.959,0,0
270324.8,158.202,-622.974,0,0
271626.425,148.67,-617.731,0,0
272928.05,142.77,-609.288,0,0
274229.675,140.3,-600.618,0,0
275531.3,139.752,-592.974,0,0
276832.925,140.663,-586.014,0,0
278134.55,143.244,-581.452,0,0
279436.175,145.182,-578.781,0,0
280737.8,145.695,-577.805,0,0
282039.425,144.369,-576.991,0,0
283341,141.563,-575.253,0,0
284643,138.668,-572.144,0,0
285944,135.367,-568.641,0,0
287246,131.633,-563.513,0,0
288548,129.164,-555.527,0,0
289849,131.196,-547.756,0,0
291151,134.591,-543.852,0,0
292452,135.258,-541.791,0,0
293754,133.913,-538.191,0,0
295056,133.512,-531.545,0,0
296357,136.455,-524.641,0,0
297659,141.145,-519.995,0,0
298960.525,146.229,-516.319,0,0
300262.15,151.729,-514.537,0,0
301563.775,157.063,-513.247,0,0
302865.4,163.805,-513.765,0,0
304167.025,169.479,-517.162,0,0
305468.65,173.234,-521.718,0,0
306770.275,176.478,-527.069,0,0
308071.9,177.486,-534.064,0,0
309373.525,176.024,-540.76,0,0
310675.15,173.588,-546.736,0,0
311976.775,169.451,-553.435,0,0
313278.4,162.443,-558.569,0,0
314580,154.927,-561.283,0,0
315882,147.771,-562.634,0,0
317183,139.986,-563.587,0,0
318485,131.888,-562.556,0,0
319787,124.361,-560.404,0,0
321088,117.227,-556.923,0,0
322390,111.002,-552.454,0,0
323691,105.851,-546.819,0,0
324993,102.894,-541.124,0,0
326295,100.936,-536.426,0,0
327596,99.6314,-532.455,0,0
328898,98.5693,-529.642,0,0
330200,97.07,-527.732,0,0
331501.125,94.8572,-526.121,0,0
332802.75,92.0141,-524.563,0,0
334104.375,88.3847,-522.551,0,0
335406.0,84.6231,-519.921,0,0
336707.625,80.873,-516.653,0,0
338009.25,77.4818,-512.903,0,0
339310.875,74.4534,-508.899,0,0
340612.5,71.6703,-504.716,0,0
341914.125,69.4338,-500.422,0,0
343215.75,67.3948,-496.351,0,0
344517.375,65.2864,-492.298,0,0
345819.0,63.2539,-488.029,0,0
347121,61.5042,-483.563,0,0
348422,60.0134,-478.955,0,0
349724,58.958,-474.247,0,0
351025,58.3309,-469.65,0,0
352327,57.9828,-465.43,0,0
353629,57.4901,-461.463,0,0
354930,57.0877,-457.414,0,0
356232,56.9212,-453.219,0,0
357534,57.1064,-449.323,0,0
358835,57.3476,-445.728,0,0
360137,57.4072,-442.078,0,0
361438,57.798,-438.518,0,0
362740.1,58.0307,-435.163,0,0
364041.725,58.3313,-431.794,0,0
365343.35,58.6473,-428.378,0,0
366644.975,59.0303,-424.975,0,0
367946.6,59.2615,-421.239,0,0
369248.225,59.9168,-416.749,0,0
370549.85,61.9375,-412.14,0,0
371851.475,65.0228,-408.516,0,0
373153.1,68.482,-406.055,0,0
374454.725,71.8672,-404.777,0,0
375756.35,74.523,-404.401,0,0
377057.975,76.3313,-404.108,0,0
378359.6,78.1442,-403.8,0,0
379661,79.6823,-403.881,0,0
380963,81.1717,-404.092,0,0
382264,82.7152,-405.456,0,0
383566,82.6973,-407.75,0,0
384868,81.0123,-409.589,0,0
386169,78.5174,-410.339,0,0
387471,75.4627,-410.197,0,0
388773,72.584,-408.603,0,0
390074,70.7188,-406.502,0,0
391376,69.3467,-404.685,0,0
392677,67.9038,-403.296,0,0
393979,65.7865,-401.844,0,0
395280.7,63.3537,-399.593,0,0
396582.325,61.287,-396.572,0,0
397883.95,59.7495,-393.255,0,0
399185.575,58.5605,-389.868,0,0
400006.6,57.9428,-387.632,0,0