File: Accelerated corrosion test data/2025-10-07_06-00-03/sample_6.csv
Frequency (Hz),Impedance (ohms),Phase (Radians),Temperature (C),Humidity (%)
10000.0,4252.08,-6452.19,0,0
11301.625,3625.61,-6090,0,0
12603.25,3125.89,-5739.84,0,0
13904.875,2719.71,-5418.39,0,0
15206.5,2386.93,-5114.97,0,0
16508.125,2112.21,-4837.56,0,0
17809.75,1883.67,-4583.55,0,0
19111.375,1690.37,-4349.12,0,0
20413.0,1524.68,-4137.37,0,0
21714.625,1382.93,-3939.94,0,0
23016.25,1264.78,-3754.7,0,0
24317.875,1158.73,-3596.62,0,0
25619.5,1064.59,-3443.17,0,0
26921.1,982.733,-3300.07,0,0
28222.7,911.963,-3169.1,0,0
29524.4,847.829,-3043.66,0,0
30826,792.454,-2930.52,0,0
32127.6,743.424,-2820.59,0,0
33429.2,704.898,-2722.08,0,0
34730.9,664.517,-2635.6,0,0
36032.5,626.395,-2553.27,0,0
37334.1,588.043,-2472.35,0,0
38635.7,554.703,-2392.61,0,0
39937.4,527.302,-2316.64,0,0
41239,502.659,-2247.24,0,0
42540.6,479.735,-2182.57,0,0
43842.225,458.66,-2116.4,0,0
45143.85,443.482,-2054.82,0,0
46445.475,433.223,-2000.2,0,0
47747.1,422.204,-1952.64,0,0
49048.725,411.545,-1912.23,0,0
50350.35,390.73,-1877.57,0,0
51651.975,367.098,-1833.01,0,0
52953.6,350.594,-1787.72,0,0
54255.225,333.027,-1746.3,0,0
55556.85,316.895,-1704.26,0,0
56858.475,304.343,-1658.28,0,0
58160.1,299.515,-1619.93,0,0
59461.7,290.305,-1587.55,0,0
60763.3,278.098,-1554.44,0,0
62065,265.058,-1518.89,0,0
63366.6,261.259,-1480.49,0,0
64668.2,255.248,-1455.86,0,0
65969.8,246.18,-1426.2,0,0
67271.5,234.851,-1397.09,0,0
68573.1,225.558,-1364.34,0,0
69874.7,219.745,-1331.86,0,0
71176.3,216.93,-1300.67,0,0
72478,216.803,-1272.21,0,0
73779.6,217.182,-1248.17,0,0
75081.2,215.465,-1225.28,0,0
76382.825,213.952,-1203.63,0,0
77684.45,212.332,-1183.01,0,0
78986.075,209.994,-1163.81,0,0
80287.7,206.802,-1145.27,0,0
81589.325,202.658,-1126.77,0,0
82890.95,198.075,-1107.76,0,0
84192.575,193.59,-1087.82,0,0
85494.2,190.804,-1067.04,0,0
86795.825,189.851,-1047.87,0,0
88097.45,188.23,-1029.83,0,0
89399.075,187.826,-1011.31,0,0
90700.7,188.846,-995.321,0,0
92002.3,187.204,-980.95,0,0
93303.9,185.948,-965.098,0,0
94605.6,185.662,-947.822,0,0
95907.2,188.032,-934.225,0,0
97208.8,188.227,-923.583,0,0
98510.4,186.985,-909.76,0,0
99812.1,190.947,-899.722,0,0
101114,187.867,-894.899,0,0
102415,182.743,-885.229,0,0
103717,176.03,-877.647,0,0
105019,164.195,-866.916,0,0
106320.175,152.645,-846.589,0,0
107621.8,150.13,-823.612,0,0
108923.425,152.65,-804.698,0,0
110225.05,154.97,-788.055,0,0
111526.675,158.504,-772.475,0,0
112828.3,163.383,-759.19,0,0
114129.925,168.485,-748.33,0,0
115431.55,172.811,-738.86,0,0
116733.175,178.085,-731.829,0,0
118034.8,176.831,-728.467,0,0
119336.425,173.652,-718.166,0,0
120638.05,177.807,-706.098,0,0
121939.675,179.339,-706.251,0,0
123241,174.251,-698.757,0,0
124543,171.396,-690.599,0,0
125845,168.191,-681.683,0,0
127146,164.378,-671.552,0,0
128448,163.081,-659.535,0,0
129749,165.09,-650.008,0,0
131051,164.785,-643.138,0,0
132353,162.711,-636.183,0,0
133654,159.257,-628.814,0,0
134956,154.377,-619.484,0,0
136258,150.007,-607.673,0,0
137559,147.16,-594.804,0,0
138860.775,145.697,-581.294,0,0
140162.4,145.666,-567.914,0,0
141464.025,147.193,-554.401,0,0
142765.65,149.254,-542.527,0,0
144067.275,151.729,-530.574,0,0
145368.9,156.306,-519.665,0,0
146670.525,158.619,-511.74,0,0
147972.15,158.549,-502.578,0,0
149273.775,158.692,-491.212,0,0
150575.4,159.216,-477.634,0,0
151877.025,162.657,-461.55,0,0
153178.65,173.542,-448.045,0,0
154480,181.47,-442.581,0,0
155782,185.636,-432.867,0,0
157084,196.115,-424.933,0,0
158385,201.136,-423.582,0,0
159687,202.208,-419.019,0,0
160988,202.924,-412.195,0,0
162290,204.082,-405.685,0,0
163592,203.75,-396.339,0,0
164893,203.494,-386.109,0,0
166195,205.129,-372.466,0,0
167497,208.794,-360.273,0,0
168798,213.182,-347.479,0,0
170100,218.416,-334.797,0,0
171401.375,223.613,-322.388,0,0
172703.0,229.092,-308.839,0,0
174004.625,234.877,-295.086,0,0
175306.25,240.345,-279.152,0,0
176607.875,247.881,-260.264,0,0
177909.5,258.793,-239.174,0,0
179211.125,274.528,-216.655,0,0
180512.75,296.875,-196.015,0,0
181814.375,322.266,-179.994,0,0
183116.0,348.834,-168.435,0,0
184417.625,374.741,-158.888,0,0
185719.25,400.039,-152.721,0,0
187021,420.83,-146.63,0,0
188322,438.605,-132.395,0,0
189624,464.494,-106.629,0,0
190926,509.121,-76.6692,0,0
192227,574.362,-58.0093,0,0
193529,646.77,-55.2274,0,0
194831,729.566,-68.6049,0,0
196132,812.38,-108.296,0,0
197434,884.317,-167.229,0,0
198735,943.609,-238.98,0,0
200037,992.256,-324.166,0,0
201339,1027.1,-422.619,0,0
202640.35,1036.37,-539.611,0,0
203941.975,1004.57,-651.084,0,0
205243.6,950.038,-740.143,0,0
206545.225,883.56,-806.823,0,0
207846.85,814.771,-851.277,0,0
209148.475,751.771,-879.259,0,0
210450.1,697.725,-900.862,0,0
211751.725,642.912,-925.255,0,0
213053.35,576.437,-938.387,0,0
214354.975,514.505,-933.531,0,0
215656.6,462.264,-918.986,0,0
216958.225,419.784,-900.632,0,0
218259.85,383.914,-880.852,0,0
219561,353.224,-860.192,0,0
220863,327.288,-838.781,0,0
222165,305.053,-816.817,0,0
223466,286.739,-793.731,0,0
224768,274.202,-769.534,0,0
226070,268.091,-747.228,0,0
227371,267.858,-730.737,0,0
228673,267.04,-722.943,0,0
229974,259.974,-718.445,0,0
231276,249.059,-710.931,0,0
232578,237.951,-699.752,0,0
233879,228.949,-686.29,0,0
235180.95,222.84,-671.743,0,0
236482.575,218.866,-657.725,0,0
237784.2,216.688,-644.36,0,0
239085.825,216.1,-631.793,0,0
240387.45,216.526,-619.88,0,0
241689.075,218.13,-608.695,0,0
242990.7,220.81,-597.964,0,0
244292.325,224.932,-587.887,0,0
245593.95,230.505,-578.384,0,0
246895.575,238.22,-569.445,0,0
248197.2,249.227,-563.018,0,0
249498.825,261.039,-561.116,0,0
250800,271.821,-561.463,0,0
252102,285.564,-563.079,0,0
253404,301.456,-572.746,0,0
254705,312.431,-590.826,0,0
256007,314.042,-613.257,0,0
257309,307.167,-634.289,0,0
258610,294.299,-651.011,0,0
259912,278.067,-663.202,0,0
261213,260.024,-670.61,0,0
262515,242.041,-673.207,0,0
263817,225.848,-672.416,0,0
265118,211.275,-670.063,0,0
266420,197.779,-666.087,0,0
267721.55,185.872,-661.025,0,0
269023.175,175.224,-655.461,0,0
270324.8,165.595,-649.532,0,0
271626.425,156.443,-643.224,0,0
272928.05,148.222,-636.621,0,0
274229.675,140.721,-629.736,0,0
275531.3,133.951,-622.58,0,0
276832.925,127.889,-615.205,0,0
278134.55,122.56,-607.827,0,0
279436.175,117.815,-600.351,0,0
280737.8,114.252,-592.777,0,0
282039.425,111.701,-586.037,0,0
283341,108.981,-580.025,0,0
284643,106.517,-573.875,0,0
285944,104.623,-568.07,0,0
287246,102.897,-563.295,0,0
288548,100.613,-558.508,0,0
289849,98.6136,-553.503,0,0
291151,96.8705,-548.828,0,0
292452,95.2887,-544.496,0,0
293754,93.596,-540.678,0,0
295056,91.27,-537.128,0,0
296357,88.2255,-533.054,0,0
297659,85.2592,-527.86,0,0
298960.525,83.5434,-521.954,0,0
300262.15,83.0628,-516.802,0,0
301563.775,82.5811,-512.617,0,0
302865.4,81.799,-508.899,0,0
304167.025,80.7964,-505.001,0,0
305468.65,79.994,-500.897,0,0
306770.275,79.9774,-497.261,0,0
308071.9,79.6329,-494.709,0,0
309373.525,78.5772,-492.063,0,0
310675.15,77.239,-489.354,0,0
311976.775,75.8565,-486.653,0,0
313278.4,74.1846,-483.699,0,0
314580,72.5636,-480.626,0,0
315882,71.1541,-477.358,0,0
317183,69.6923,-474.143,0,0
318485,68.2822,-471.12,0,0
319787,66.7654,-467.836,0,0
321088,65.2549,-464.401,0,0
322390,64.0966,-460.895,0,0
323691,62.9969,-457.4,0,0
324993,62.0119,-454.143,0,0
326295,60.8969,-450.965,0,0
327596,59.8069,-447.575,0,0
328898,58.8533,-444.209,0,0
330200,57.935,-440.835,0,0
331501.125,57.0979,-437.46,0,0
332802.75,56.3454,-434.046,0,0
334104.375,55.7309,-430.608,0,0
335406.0,55.3064,-427.243,0,0
336707.625,54.9826,-424.039,0,0
338009.25,54.63,-420.977,0,0
339310.875,54.1815,-417.898,0,0
340612.5,53.8836,-414.803,0,0
341914.125,53.6936,-411.678,0,0
343215.75,53.9115,-408.781,0,0
344517.375,54.0322,-406.563,0,0
345819.0,53.257,-404.344,0,0
347121,52.5693,-401.544,0,0
348422,52.043,-398.564,0,0
349724,51.7433,-395.623,0,0
351025,51.5555,-392.74,0,0
352327,51.5472,-389.908,0,0
353629,51.6006,-387.261,0,0
354930,51.5476,-384.813,0,0
356232,51.4139,-382.336,0,0
357534,51.2955,-379.714,0,0
358835,51.4238,-377.201,0,0
360137,51.5755,-374.989,0,0
361438,51.4988,-372.864,0,0
362740.1,51.2088,-370.74,0,0
364041.725,50.8577,-368.462,0,0
365343.35,50.5564,-366.045,0,0
366644.975,50.3509,-363.574,0,0
367946.6,50.2462,-361.202,0,0
369248.225,50.1501,-358.79,0,0
370549.85,50.1716,-356.332,0,0
371851.475,50.2978,-353.962,0,0
373153.1,50.6567,-351.843,0,0
374454.725,50.8586,-350.176,0,0
375756.35,50.4992,-348.601,0,0
377057.975,49.8341,-346.595,0,0
378359.6,49.3344,-344.439,0,0
379661,48.7051,-342.184,0,0
380963,48.0972,-339.647,0,0
382264,47.7404,-336.794,0,0
383566,48.0356,-334.152,0,0
384868,48.1015,-332.17,0,0
386169,47.7309,-329.968,0,0
387471,47.3854,-327.52,0,0
388773,47.1354,-324.979,0,0
390074,46.9334,-322.316,0,0
391376,46.8784,-319.726,0,0
392677,46.8416,-317.091,0,0
393979,46.8842,-314.461,0,0
395280.7,46.8822,-311.831,0,0
396582.325,47.0653,-309.1,0,0
397883.95,47.2346,-306.413,0,0
399185.575,47.4679,-303.73,0,0
400006.6,47.6019,-302.069,0,0