File: Accelerated corrosion test data/2025-10-07_06-00-03/sample_7.csv
Frequency (Hz),Impedance (ohms),Phase (Radians),Temperature (C),Humidity (%)
10000.0,274.327,-12089.3,0,0
11301.625,247.025,-10694,0,0
12603.25,259.379,-9646.38,0,0
13904.875,209.323,-8749.82,0,0
15206.5,196.782,-8011.66,0,0
16508.125,171.683,-7371.9,0,0
17809.75,170.162,-6815.6,0,0
19111.375,183.408,-6380.17,0,0
20413.0,170.163,-5978.84,0,0
21714.625,155.476,-5637.52,0,0
23016.25,130.827,-5316.85,0,0
24317.875,123.506,-5024.21,0,0
25619.5,119.633,-4760.52,0,0
26921.1,123.811,-4515.01,0,0
28222.7,181.239,-4310.88,0,0
29524.4,136.497,-4168.7,0,0
30826,134.84,-3986.79,0,0
32127.6,117.817,-3841.39,0,0
33429.2,102.099,-3689.67,0,0
34730.9,92.9403,-3545.31,0,0
36032.5,88.9704,-3411.57,0,0
37334.1,86.3933,-3287.81,0,0
38635.7,86.8057,-3170.94,0,0
39937.4,97.5621,-3070.84,0,0
41239,87.0261,-2983.47,0,0
42540.6,80.4303,-2887.59,0,0
43842.225,79.6677,-2798.89,0,0
45143.85,80.5683,-2721.27,0,0
46445.475,77.894,-2648.12,0,0
47747.1,71.2321,-2572.17,0,0
49048.725,68.3435,-2502.15,0,0
50350.35,66.3359,-2435.04,0,0
51651.975,64.6429,-2371.43,0,0
52953.6,63.8164,-2310.88,0,0
54255.225,62.5751,-2253.95,0,0
55556.85,61.2369,-2199.17,0,0
56858.475,60.5837,-2146.99,0,0
58160.1,59.852,-2096.5,0,0
59461.7,60.1303,-2049.11,0,0
60763.3,59.4958,-2005.31,0,0
62065,57.4342,-1962,0,0
63366.6,56.3465,-1919.35,0,0
64668.2,55.3631,-1878.78,0,0
65969.8,55.525,-1840.2,0,0
67271.5,53.7013,-1803.39,0,0
68573.1,52.6914,-1766.69,0,0
69874.7,52.1334,-1731.22,0,0
71176.3,51.8634,-1697.84,0,0
72478,50.6747,-1665.52,0,0
73779.6,49.8519,-1633.64,0,0
75081.2,49.2888,-1602.8,0,0
76382.825,48.8644,-1573,0,0
77684.45,48.5202,-1544.14,0,0
78986.075,48.2881,-1516.21,0,0
80287.7,48.035,-1489.1,0,0
81589.325,47.8429,-1462.85,0,0
82890.95,47.752,-1437.17,0,0
84192.575,47.5882,-1412.09,0,0
85494.2,47.908,-1388.04,0,0
86795.825,47.811,-1364.56,0,0
88097.45,48.1189,-1341.69,0,0
89399.075,47.9028,-1319.5,0,0
90700.7,48.2087,-1297.33,0,0
92002.3,48.6616,-1275.95,0,0
93303.9,49.0275,-1254.92,0,0
94605.6,51.5233,-1235.4,0,0
95907.2,50.5547,-1217.4,0,0
97208.8,50.1897,-1197.6,0,0
98510.4,51.1617,-1178.09,0,0
99812.1,50.6341,-1159.6,0,0
101114,52.0494,-1140.59,0,0
102415,53.6134,-1122.4,0,0
103717,56.4973,-1105.54,0,0
105019,57.6177,-1090.84,0,0
106320.175,57.2118,-1074.75,0,0
107621.8,58.3217,-1058.4,0,0
108923.425,59.1923,-1042.69,0,0
110225.05,59.4543,-1026.1,0,0
111526.675,62.5305,-1009.01,0,0
112828.3,66.2664,-992.953,0,0
114129.925,71.4556,-979,0,0
115431.55,76.8192,-966.021,0,0
116733.175,84.7263,-956.475,0,0
118034.8,88.1898,-950.902,0,0
119336.425,91.1197,-947.668,0,0
120638.05,85.3191,-946.662,0,0
121939.675,75.4943,-936.368,0,0
123241,68.9763,-923.767,0,0
124543,64.4772,-909.261,0,0
125845,60.6466,-895.864,0,0
127146,57.2701,-881.055,0,0
128448,55.742,-866.054,0,0
129749,54.5789,-851.641,0,0
131051,53.5675,-837.066,0,0
132353,52.7004,-821.921,0,0
133654,53.3809,-806.286,0,0
134956,56.4537,-791.418,0,0
136258,61.4392,-778.625,0,0
137559,62.0148,-770.658,0,0
138860.775,60.3031,-758.928,0,0
140162.4,60.5729,-745.103,0,0
141464.025,60.8962,-732.199,0,0
142765.65,62.028,-718.206,0,0
144067.275,64.548,-705.113,0,0
145368.9,66.0113,-692.754,0,0
146670.525,67.1468,-679.615,0,0
147972.15,68.7081,-666.363,0,0
149273.775,69.65,-653.237,0,0
150575.4,70.4865,-637.538,0,0
151877.025,72.9191,-620.092,0,0
153178.65,77.9335,-602.108,0,0
154480,84.6651,-584.096,0,0
155782,94.3051,-566.624,0,0
157084,106.257,-551.041,0,0
158385,119.381,-538.948,0,0
159687,128.23,-530.53,0,0
160988,131.804,-515.522,0,0
162290,142.207,-491.721,0,0
163592,161.783,-468.601,0,0
164893,188.101,-450.421,0,0
166195,217.78,-432.356,0,0
167497,264.056,-420.921,0,0
168798,317.068,-428.944,0,0
170100,361.232,-458.085,0,0
171401.375,394.67,-504.405,0,0
172703.0,408.354,-560.39,0,0
174004.625,385.654,-614.266,0,0
175306.25,344.11,-634.171,0,0
176607.875,323.939,-624.049,0,0
177909.5,332.452,-626.393,0,0
179211.125,331.709,-664.543,0,0
180512.75,299.392,-686.708,0,0
181814.375,259.292,-701.31,0,0
183116.0,215.406,-690.281,0,0
184417.625,186.804,-666.553,0,0
185719.25,169.781,-644.231,0,0
187021,155.117,-617.216,0,0
188322,152.664,-592.293,0,0
189624,146.006,-576.873,0,0
190926,139.057,-553.113,0,0
192227,138.791,-527.883,0,0
193529,141.37,-502.859,0,0
194831,148.515,-478.101,0,0
196132,159.765,-456.495,0,0
197434,172.348,-437.094,0,0
198735,184.931,-418.694,0,0
200037,199.15,-398.806,0,0
201339,218.437,-378.663,0,0
202640.35,243.62,-358.74,0,0
203941.975,274.932,-343.828,0,0
205243.6,310.918,-336.196,0,0
206545.225,350.365,-340.399,0,0
207846.85,375.86,-351.465,0,0
209148.475,406.309,-348.503,0,0
210450.1,458.019,-363.428,0,0
211751.725,496.65,-410.101,0,0
213053.35,508.728,-458.5,0,0
214354.975,506.609,-501.734,0,0
215656.6,494.351,-534.264,0,0
216958.225,485.4,-564.495,0,0
218259.85,462.447,-592.661,0,0
219561,430.547,-608.969,0,0
220863,400.757,-604.775,0,0
222165,385.65,-591.08,0,0
223466,382.926,-579.253,0,0
224768,385.499,-570.866,0,0
226070,396.27,-562.122,0,0
227371,414.02,-567.606,0,0
228673,431.629,-582.077,0,0
229974,440.818,-609.323,0,0
231276,439.367,-642.498,0,0
232578,425.258,-671.974,0,0
233879,401.483,-702.548,0,0
235180.95,358.503,-718.16,0,0
236482.575,322.08,-710.966,0,0
237784.2,294.563,-701.828,0,0
239085.825,272.438,-680.176,0,0
240387.45,270.032,-661.365,0,0
241689.075,263.716,-658.094,0,0
242990.7,248.863,-648.142,0,0
244292.325,241.944,-628.858,0,0
245593.95,248.208,-614.021,0,0
246895.575,251.64,-609.502,0,0
248197.2,252.271,-603.929,0,0
249498.825,254.582,-598.144,0,0
250800,258.999,-595.42,0,0
252102,263.21,-595.238,0,0
253404,266.064,-598.969,0,0
254705,264.126,-605.636,0,0
256007,256.788,-609.454,0,0
257309,247.418,-608.782,0,0
258610,239.002,-602.942,0,0
259912,234.816,-595.652,0,0
261213,232.019,-586.008,0,0
262515,237.035,-574.714,0,0
263817,248.017,-571.809,0,0
265118,254.918,-576.526,0,0
266420,257.91,-580.184,0,0
267721.55,261.768,-585.746,0,0
269023.175,261.904,-593.143,0,0
270324.8,262.504,-598.427,0,0
271626.425,266.035,-606.783,0,0
272928.05,269.917,-629.177,0,0
274229.675,250.561,-657.778,0,0
275531.3,214.182,-670.002,0,0
276832.925,178.127,-661.81,0,0
278134.55,152.474,-640.14,0,0
279436.175,141.096,-616.388,0,0
280737.8,137.671,-596.149,0,0
282039.425,137.541,-582.655,0,0
283341,134.417,-569.811,0,0
284643,134.462,-553.806,0,0
285944,139.648,-540.622,0,0
287246,145.646,-531.991,0,0
288548,149.087,-525.019,0,0
289849,152.858,-516.15,0,0
291151,159.099,-507.401,0,0
292452,167.023,-501.256,0,0
293754,174.831,-496.375,0,0
295056,183.288,-491.864,0,0
296357,194.059,-488.072,0,0
297659,207.299,-487.46,0,0
298960.525,220.513,-491.343,0,0
300262.15,233.985,-497.294,0,0
301563.775,249.384,-509.169,0,0
302865.4,262.063,-532.867,0,0
304167.025,257.939,-562.048,0,0
305468.65,243.241,-583.958,0,0
306770.275,222.998,-598.351,0,0
308071.9,201.697,-603.915,0,0
309373.525,181.954,-603.527,0,0
310675.15,165.892,-598.328,0,0
311976.775,153.827,-591.795,0,0
313278.4,143.833,-585.377,0,0
314580,134.801,-578.035,0,0
315882,128.217,-569.483,0,0
317183,124.319,-561.739,0,0
318485,121.084,-555.513,0,0
319787,118.657,-549.285,0,0
321088,117.366,-544.499,0,0
322390,115.715,-541.056,0,0
323691,113.302,-538.123,0,0
324993,110.394,-534.873,0,0
326295,107.931,-531.388,0,0
327596,105.577,-528.598,0,0
328898,102.46,-526.088,0,0
330200,99.1567,-523.086,0,0
331501.125,95.9434,-520.292,0,0
332802.75,91.7592,-517.66,0,0
334104.375,86.8239,-513.905,0,0
335406.0,82.1498,-508.954,0,0
336707.625,77.9551,-503.271,0,0
338009.25,74.6066,-496.682,0,0
339310.875,72.3392,-490.077,0,0
340612.5,70.5815,-483.68,0,0
341914.125,69.3746,-477.083,0,0
343215.75,69.1411,-470.64,0,0
344517.375,69.603,-464.686,0,0
345819.0,70.6079,-459.623,0,0
347121,71.3719,-455.531,0,0
348422,71.4075,-451.874,0,0
349724,70.7787,-447.507,0,0
351025,70.3795,-442.658,0,0
352327,70.9212,-437.017,0,0
353629,72.6416,-432.125,0,0
354930,74.5866,-428.349,0,0
356232,76.4324,-425.594,0,0
357534,76.7937,-423.534,0,0
358835,75.9514,-420.323,0,0
360137,75.6695,-415.59,0,0
361438,76.7806,-410.503,0,0
362740.1,78.808,-406.113,0,0
364041.725,81.1341,-402.288,0,0
365343.35,83.8101,-399.063,0,0
366644.975,86.4155,-396.807,0,0
367946.6,88.5907,-394.794,0,0
369248.225,90.7668,-393.427,0,0
370549.85,91.9915,-393.119,0,0
371851.475,91.0242,-392.043,0,0
373153.1,90.2255,-388.734,0,0
374454.725,90.7823,-384.902,0,0
375756.35,92.046,-381.317,0,0
377057.975,93.5903,-378.126,0,0
378359.6,95.014,-374.647,0,0
379661,97.4052,-371.133,0,0
380963,100.109,-368.251,0,0
382264,102.736,-365.505,0,0
383566,105.92,-363.015,0,0
384868,108.981,-361.076,0,0
386169,111.87,-359.413,0,0
387471,114.757,-357.507,0,0
388773,117.705,-355.409,0,0
390074,121.992,-353.243,0,0
391376,126.537,-352.378,0,0
392677,130.668,-351.926,0,0
393979,135.062,-351.4,0,0
395280.7,140.213,-351.056,0,0
396582.325,146.656,-351.423,0,0
397883.95,154.56,-354.334,0,0
399185.575,161.4,-361.139,0,0
400006.6,164.241,-367.019,0,0