File: Accelerated corrosion test data/2025-10-07_06-00-03/sample_2.csv
Frequency (Hz),Impedance (ohms),Phase (Radians),Temperature (C),Humidity (%)
10000.0,230.782,-11399.6,0,0
11301.625,205.331,-10096.3,0,0
12603.25,184.487,-9064.71,0,0
13904.875,186.603,-8219.54,0,0
15206.5,167.747,-7529.56,0,0
16508.125,144.047,-6939.54,0,0
17809.75,133.381,-6433.02,0,0
19111.375,129.396,-5994.53,0,0
20413.0,118.913,-5612.65,0,0
21714.625,128.332,-5283.32,0,0
23016.25,112.709,-4988.73,0,0
24317.875,103.674,-4723.7,0,0
25619.5,97.6389,-4481.13,0,0
26921.1,95.2414,-4263.14,0,0
28222.7,90.6496,-4064.12,0,0
29524.4,93.5059,-3881.22,0,0
30826,88.0337,-3727.23,0,0
32127.6,82.2287,-3573.79,0,0
33429.2,80.1999,-3435.39,0,0
34730.9,75.9318,-3304.91,0,0
36032.5,73.3961,-3184.08,0,0
37334.1,71.3106,-3070.87,0,0
38635.7,68.7761,-2965.93,0,0
39937.4,67.2293,-2867.3,0,0
41239,65.7015,-2774.79,0,0
42540.6,64.5858,-2688.52,0,0
43842.225,63.2128,-2606.62,0,0
45143.85,61.8503,-2529.1,0,0
46445.475,61.4567,-2457.12,0,0
47747.1,60.7667,-2387.8,0,0
49048.725,60.7864,-2323.77,0,0
50350.35,58.0157,-2262.15,0,0
51651.975,56.7882,-2203,0,0
52953.6,55.233,-2146.03,0,0
54255.225,54.5348,-2091.49,0,0
55556.85,54.0981,-2039.55,0,0
56858.475,53.9759,-1989.94,0,0
58160.1,54.2008,-1942.69,0,0
59461.7,54.7174,-1896.9,0,0
60763.3,56.2446,-1854.61,0,0
62065,58.8309,-1816.17,0,0
63366.6,55.9257,-1779.73,0,0
64668.2,53.0627,-1741.33,0,0
65969.8,50.673,-1702.52,0,0
67271.5,51.4729,-1665.24,0,0
68573.1,53.6141,-1631.43,0,0
69874.7,56.0741,-1600.99,0,0
71176.3,52.7366,-1572.86,0,0
72478,48.0934,-1542.5,0,0
73779.6,45.3151,-1509.87,0,0
75081.2,45.3686,-1477.66,0,0
76382.825,47.0286,-1447.25,0,0
77684.45,49.6763,-1419.13,0,0
78986.075,53.078,-1394.74,0,0
80287.7,51.9912,-1373.44,0,0
81589.325,49.3693,-1348.45,0,0
82890.95,48.1916,-1322.77,0,0
84192.575,48.9203,-1298.04,0,0
85494.2,49.7199,-1274.64,0,0
86795.825,50.7114,-1252.66,0,0
88097.45,51.2271,-1231.58,0,0
89399.075,51.2808,-1210.1,0,0
90700.7,51.6464,-1189.9,0,0
92002.3,53.0225,-1168.74,0,0
93303.9,55.7697,-1149.9,0,0
94605.6,55.3101,-1133.44,0,0
95907.2,54.6488,-1114.04,0,0
97208.8,57.8148,-1096.96,0,0
98510.4,57.8138,-1083.26,0,0
99812.1,53.6536,-1069.15,0,0
101114,50.6251,-1050.86,0,0
102415,47.2525,-1030.82,0,0
103717,46.2862,-1010.22,0,0
105019,49.718,-989.657,0,0
106320.175,54.5582,-972.86,0,0
107621.8,57.7907,-960.718,0,0
108923.425,56.4931,-948.773,0,0
110225.05,53.2043,-933.524,0,0
111526.675,52.1802,-915.898,0,0
112828.3,52.5106,-898.597,0,0
114129.925,54.1986,-881.477,0,0
115431.55,56.8809,-865.186,0,0
116733.175,60.2526,-849.815,0,0
118034.8,64.2421,-835.942,0,0
119336.425,67.8757,-823.881,0,0
120638.05,70.2041,-813.665,0,0
121939.675,69.3977,-802.489,0,0
123241,68.5861,-789.604,0,0
124543,68.03,-776.026,0,0
125845,67.9959,-761.206,0,0
127146,69.3843,-746.069,0,0
128448,72.1594,-731.503,0,0
129749,74.9941,-718.32,0,0
131051,77.4272,-705.566,0,0
132353,79.1043,-693.235,0,0
133654,80.2106,-679.558,0,0
134956,81.6948,-665.349,0,0
136258,84.0654,-650.5,0,0
137559,87.1694,-635.39,0,0
138860.775,90.3286,-620.61,0,0
140162.4,93.5849,-604.477,0,0
141464.025,99.0573,-585.99,0,0
142765.65,108.288,-567.999,0,0
144067.275,119.385,-552.988,0,0
145368.9,130.553,-538.266,0,0
146670.525,143.155,-524.313,0,0
147972.15,158.681,-510.12,0,0
149273.775,178.673,-497.381,0,0
150575.4,205.848,-493.67,0,0
151877.025,228.388,-504.384,0,0
153178.65,236.614,-519.976,0,0
154480,234.988,-530.343,0,0
155782,230.191,-533.573,0,0
157084,225.269,-532.702,0,0
158385,221.614,-526.245,0,0
159687,220.816,-519.944,0,0
160988,221.802,-513.379,0,0
162290,227.948,-508.393,0,0
163592,226.245,-514.238,0,0
164893,212.988,-512.603,0,0
166195,199.569,-499.985,0,0
167497,191.851,-479.679,0,0
168798,189.592,-457.133,0,0
170100,192.277,-436.083,0,0
171401.375,196.075,-413.598,0,0
172703.0,204.71,-389.604,0,0
174004.625,217.338,-364.954,0,0
175306.25,236.962,-340.836,0,0
176607.875,261.906,-323.78,0,0
177909.5,290.551,-312.467,0,0
179211.125,311.004,-314.641,0,0
180512.75,321.329,-311.578,0,0
181814.375,326.612,-296.41,0,0
183116.0,342.834,-274.013,0,0
184417.625,368.842,-250.016,0,0
185719.25,405.924,-230.155,0,0
187021,446.954,-221.992,0,0
188322,489.838,-215.822,0,0
189624,530.38,-215.798,0,0
190926,575.239,-214.063,0,0
192227,633.742,-215.518,0,0
193529,704.257,-236.014,0,0
194831,767.046,-282.069,0,0
196132,818.565,-342.717,0,0
197434,856.244,-409.087,0,0
198735,883.07,-485.71,0,0
200037,888.969,-567.542,0,0
201339,881.82,-652.973,0,0
202640.35,846.799,-734.49,0,0
203941.975,792.615,-793.182,0,0
205243.6,740.565,-833.731,0,0
206545.225,680.916,-861.404,0,0
207846.85,631.022,-871.686,0,0
209148.475,592.346,-876.851,0,0
210450.1,553.754,-888.695,0,0
211751.725,508.251,-890.596,0,0
213053.35,469.719,-880.969,0,0
214354.975,437.763,-866.844,0,0
215656.6,413.915,-851.905,0,0
216958.225,394.303,-836.136,0,0
218259.85,380.417,-820.457,0,0
219561,370.937,-806.862,0,0
220863,364.121,-796.33,0,0
222165,359.965,-785.998,0,0
223466,359.413,-780.741,0,0
224768,357.165,-780.073,0,0
226070,352.367,-779.549,0,0
227371,350.2,-779.526,0,0
228673,348.432,-784.742,0,0
229974,341.389,-794.898,0,0
231276,327.658,-803.429,0,0
232578,311.08,-807.872,0,0
233879,293.486,-809.216,0,0
235180.95,276.528,-807.913,0,0
236482.575,259.286,-805.093,0,0
237784.2,242.015,-799.834,0,0
239085.825,226.111,-791.691,0,0
240387.45,212.238,-782.063,0,0
241689.075,200.655,-771.856,0,0
242990.7,190.985,-761.732,0,0
244292.325,182.62,-753.222,0,0
245593.95,173.997,-745.926,0,0
246895.575,162.926,-739.501,0,0
248197.2,149.588,-728.765,0,0
249498.825,138.67,-715.015,0,0
250800,129.991,-699.471,0,0
252102,124.446,-682.788,0,0
253404,121.877,-666.364,0,0
254705,121.099,-651.094,0,0
256007,121.982,-635.416,0,0
257309,126.248,-620.949,0,0
258610,132.004,-608.738,0,0
259912,138.927,-597.902,0,0
261213,147.811,-589.301,0,0
262515,157.197,-584.13,0,0
263817,165.996,-581.427,0,0
265118,173.638,-582.173,0,0
266420,177.354,-583.843,0,0
267721.55,180.435,-584.434,0,0
269023.175,181.258,-585.632,0,0
270324.8,181.036,-583.577,0,0
271626.425,183.782,-579.057,0,0
272928.05,190.153,-576.078,0,0
274229.675,200.667,-575.726,0,0
275531.3,213.08,-584.291,0,0
276832.925,217.962,-602.226,0,0
278134.55,210.448,-618.736,0,0
279436.175,198.488,-628.909,0,0
280737.8,185.311,-634.149,0,0
282039.425,172.182,-636.807,0,0
283341,156.827,-635.703,0,0
284643,145.438,-629.733,0,0
285944,133.602,-625.363,0,0
287246,120.004,-614.651,0,0
288548,112.256,-597.286,0,0
289849,114.613,-577.803,0,0
291151,126.998,-565.542,0,0
292452,141.418,-564.977,0,0
293754,147.501,-573.691,0,0
295056,144.386,-578.231,0,0
296357,146.166,-578.695,0,0
297659,145.9,-587.446,0,0
298960.525,137.56,-593.239,0,0
300262.15,128.134,-594.588,0,0
301563.775,119.477,-591.641,0,0
302865.4,115.466,-587.743,0,0
304167.025,111.801,-587.957,0,0
305468.65,104.394,-588.463,0,0
306770.275,95.2775,-585.805,0,0
308071.9,87.4361,-580.35,0,0
309373.525,81.3547,-574.234,0,0
310675.15,76.2426,-568.007,0,0
311976.775,71.7595,-561.373,0,0
313278.4,68.4836,-554.634,0,0
314580,65.6933,-548.438,0,0
315882,63.2303,-542.184,0,0
317183,61.1893,-535.81,0,0
318485,60.0051,-529.709,0,0
319787,59.1224,-524.11,0,0
321088,58.1375,-518.686,0,0
322390,57.3178,-513.364,0,0
323691,56.4105,-507.734,0,0
324993,56.1969,-501.196,0,0
326295,58.34,-494.737,0,0
327596,61.5595,-490.858,0,0
328898,63.7067,-488.509,0,0
330200,65.3052,-486.797,0,0
331501.125,66.104,-485.975,0,0
332802.75,65.4342,-485.758,0,0
334104.375,63.0293,-484.452,0,0
335406.0,60.6234,-481.72,0,0
336707.625,58.6883,-478.415,0,0
338009.25,56.9327,-474.634,0,0
339310.875,55.6241,-470.502,0,0
340612.5,54.7549,-466.253,0,0
341914.125,54.2753,-461.948,0,0
343215.75,54.1392,-457.634,0,0
344517.375,54.4121,-453.284,0,0
345819.0,55.2225,-449.157,0,0
347121,56.3561,-445.362,0,0
348422,57.794,-441.859,0,0
349724,59.3896,-438.8,0,0
351025,61.1044,-436.347,0,0
352327,62.4364,-434.325,0,0
353629,63.5067,-432.269,0,0
354930,64.7797,-430.285,0,0
356232,65.9966,-428.488,0,0
357534,67.4721,-426.792,0,0
358835,69.1764,-425.706,0,0
360137,70.717,-425.564,0,0
361438,71.1544,-425.77,0,0
362740.1,71.0914,-425.885,0,0
364041.725,70.3332,-425.811,0,0
365343.35,69.4008,-425.371,0,0
366644.975,68.142,-424.409,0,0
367946.6,67.2086,-422.825,0,0
369248.225,67.0194,-421.472,0,0
370549.85,66.6311,-421.063,0,0
371851.475,65.3164,-420.455,0,0
373153.1,64.0344,-419.296,0,0
374454.725,62.8748,-418.193,0,0
375756.35,61.3949,-417.138,0,0
377057.975,59.866,-415.828,0,0
378359.6,58.2377,-414.756,0,0
379661,55.4576,-413.38,0,0
380963,53.0571,-409.833,0,0
382264,52.8956,-407.001,0,0
383566,51.8189,-405.564,0,0
384868,49.8759,-403.592,0,0
386169,47.9312,-400.886,0,0
387471,46.2998,-397.602,0,0
388773,45.2546,-394.104,0,0
390074,44.9407,-390.62,0,0
391376,45.1638,-387.887,0,0
392677,44.6292,-386.119,0,0
393979,43.0577,-383.711,0,0
395280.7,41.5432,-380.289,0,0
396582.325,40.7682,-376.273,0,0
397883.95,40.7552,-372.239,0,0
399185.575,41.228,-368.491,0,0
400006.6,41.64,-366.368,0,0