File: Accelerated corrosion test data/2025-10-14_06-00-04/sample_3.csv
Frequency (Hz),Impedance (ohms),Phase (Radians),Temperature (C),Humidity (%)
10000.0,249.996,-11795.7,0,0
11301.625,222.606,-10448.7,0,0
12603.25,201.661,-9376.95,0,0
13904.875,184.643,-8503.96,0,0
15206.5,172.241,-7772.82,0,0
16508.125,160.758,-7178.05,0,0
17809.75,156.423,-6649.12,0,0
19111.375,145.937,-6198.25,0,0
20413.0,159.627,-5798.98,0,0
21714.625,138.379,-5475.26,0,0
23016.25,127.499,-5170.2,0,0
24317.875,118.845,-4890.83,0,0
25619.5,112.974,-4643.34,0,0
26921.1,108.081,-4412.59,0,0
28222.7,103.349,-4205.81,0,0
29524.4,108.163,-4029.54,0,0
30826,100.727,-3857.28,0,0
32127.6,101.087,-3692.36,0,0
33429.2,98.9859,-3568.34,0,0
34730.9,87.24,-3430.09,0,0
36032.5,82.9807,-3302.12,0,0
37334.1,80.0723,-3184.21,0,0
38635.7,77.628,-3074.4,0,0
39937.4,75.293,-2971.82,0,0
41239,74.0903,-2874.6,0,0
42540.6,72.7899,-2785.06,0,0
43842.225,71.4328,-2699.7,0,0
45143.85,70.6537,-2619.81,0,0
46445.475,69.3482,-2544.09,0,0
47747.1,69.9384,-2471.34,0,0
49048.725,68.1518,-2406.02,0,0
50350.35,66.3891,-2340.88,0,0
51651.975,65.8098,-2278.12,0,0
52953.6,66.0994,-2218.38,0,0
54255.225,68.9255,-2163.38,0,0
55556.85,66.3048,-2115.99,0,0
56858.475,61.4502,-2063.08,0,0
58160.1,60.9059,-2011.18,0,0
59461.7,61.3912,-1961.87,0,0
60763.3,62.5857,-1915.31,0,0
62065,64.6994,-1870.46,0,0
63366.6,68.3904,-1826.92,0,0
64668.2,77.3315,-1785.21,0,0
65969.8,91.6874,-1760.09,0,0
67271.5,75.4069,-1734.52,0,0
68573.1,75.8345,-1696.7,0,0
69874.7,75.5907,-1667.53,0,0
71176.3,70.4624,-1636.96,0,0
72478,69.2165,-1604.21,0,0
73779.6,67.6852,-1576.06,0,0
75081.2,64.0719,-1547.87,0,0
76382.825,60.4737,-1518.73,0,0
77684.45,57.939,-1489.8,0,0
78986.075,55.7314,-1461.31,0,0
80287.7,54.2042,-1433.27,0,0
81589.325,53.188,-1406.06,0,0
82890.95,52.5733,-1379.61,0,0
84192.575,52.3223,-1353.96,0,0
85494.2,52.1872,-1328.93,0,0
86795.825,52.3915,-1304.65,0,0
88097.45,52.9711,-1280.86,0,0
89399.075,54.2354,-1256.99,0,0
90700.7,56.4351,-1235.33,0,0
92002.3,58.7093,-1214.7,0,0
93303.9,61.5867,-1195.79,0,0
94605.6,62.4457,-1181.23,0,0
95907.2,57.3245,-1163.44,0,0
97208.8,56.0292,-1142.22,0,0
98510.4,55.813,-1122.58,0,0
99812.1,55.2749,-1103.57,0,0
101114,54.9067,-1083.85,0,0
102415,56.297,-1063.38,0,0
103717,60.0996,-1045.8,0,0
105019,63.3936,-1031.63,0,0
106320.175,62.7902,-1017.85,0,0
107621.8,60.5985,-1002.18,0,0
108923.425,58.7567,-984.821,0,0
110225.05,58.8274,-966.356,0,0
111526.675,61.1213,-948.359,0,0
112828.3,63.2421,-932.493,0,0
114129.925,64.7176,-916.618,0,0
115431.55,66.8251,-899.763,0,0
116733.175,70.4764,-883.16,0,0
118034.8,76.3054,-867.246,0,0
119336.425,82.9906,-855.172,0,0
120638.05,89.0079,-849.021,0,0
121939.675,86.0473,-840.686,0,0
123241,86.557,-827.263,0,0
124543,88.1292,-815.894,0,0
125845,89.5176,-805.504,0,0
127146,88.9808,-795.822,0,0
128448,87.449,-785.093,0,0
129749,85.9627,-772.117,0,0
131051,87.0666,-759.361,0,0
132353,86.3366,-748.419,0,0
133654,85.6978,-736.566,0,0
134956,84.0762,-724.085,0,0
136258,82.6398,-710.705,0,0
137559,82.393,-695.533,0,0
138860.775,83.6653,-681.969,0,0
140162.4,82.935,-668.524,0,0
141464.025,82.5501,-654.453,0,0
142765.65,81.757,-638.532,0,0
144067.275,82.0508,-621.356,0,0
145368.9,83.766,-603.308,0,0
146670.525,86.3383,-584.622,0,0
147972.15,90.7224,-564.743,0,0
149273.775,97.1902,-544.501,0,0
150575.4,107.58,-524.397,0,0
151877.025,120.168,-507.537,0,0
153178.65,132.779,-493.939,0,0
154480,142.705,-482.033,0,0
155782,151.024,-465.734,0,0
157084,162.873,-448.258,0,0
158385,179.241,-437.433,0,0
159687,183.736,-422.908,0,0
160988,199.077,-395.574,0,0
162290,224.33,-369.839,0,0
163592,260.172,-348.363,0,0
164893,308.094,-337.185,0,0
166195,359.872,-349.773,0,0
167497,398.889,-381.215,0,0
168798,420.273,-417.612,0,0
170100,419.899,-458.891,0,0
171401.375,405.446,-474.701,0,0
172703.0,401.372,-477.438,0,0
174004.625,409.563,-487.045,0,0
175306.25,411.641,-503.985,0,0
176607.875,409.033,-522.556,0,0
177909.5,387.396,-540.627,0,0
179211.125,363.945,-532.503,0,0
180512.75,359.283,-519.388,0,0
181814.375,364.227,-515.834,0,0
183116.0,357.085,-521.962,0,0
184417.625,342.788,-519.706,0,0
185719.25,328.286,-507.07,0,0
187021,323.262,-484.178,0,0
188322,329.87,-465.731,0,0
189624,334.653,-451.494,0,0
190926,344.247,-437.015,0,0
192227,353.372,-423.691,0,0
193529,364.192,-405.25,0,0
194831,387.316,-387.935,0,0
196132,419.705,-382.168,0,0
197434,442.925,-393.818,0,0
198735,456.53,-400.36,0,0
200037,466.558,-406.008,0,0
201339,471.943,-400.223,0,0
202640.35,491.938,-390.819,0,0
203941.975,521.877,-390.6,0,0
205243.6,550.44,-404.568,0,0
206545.225,561.84,-420.223,0,0
207846.85,581.578,-420.004,0,0
209148.475,613.456,-428.957,0,0
210450.1,645.97,-451.186,0,0
211751.725,672.515,-483.389,0,0
213053.35,693.155,-518.492,0,0
214354.975,707.28,-560.779,0,0
215656.6,713.503,-606.309,0,0
216958.225,710.655,-652.157,0,0
218259.85,697.516,-695.834,0,0
219561,677.501,-732.16,0,0
220863,658.554,-768.757,0,0
222165,629.209,-806.349,0,0
223466,584.412,-832.18,0,0
224768,542.927,-834.251,0,0
226070,521.755,-832.106,0,0
227371,504.342,-841.088,0,0
228673,478.955,-852.851,0,0
229974,451.9,-858.666,0,0
231276,423.901,-861.31,0,0
232578,397.725,-859.996,0,0
233879,373.404,-856.673,0,0
235180.95,350.796,-852.105,0,0
236482.575,326.609,-847.509,0,0
237784.2,302.355,-839.242,0,0
239085.825,278.6,-824.971,0,0
240387.45,261.474,-807.8,0,0
241689.075,247.07,-790.279,0,0
242990.7,238.251,-772,0,0
244292.325,233.695,-757.362,0,0
245593.95,228.33,-745.933,0,0
246895.575,222.903,-733.801,0,0
248197.2,218.908,-721.862,0,0
249498.825,218.561,-711.112,0,0
250800,216.72,-705.635,0,0
252102,210.195,-699.519,0,0
253404,202.173,-688.675,0,0
254705,197.513,-673.989,0,0
256007,198.04,-657.238,0,0
257309,205.532,-643.818,0,0
258610,212.826,-635.083,0,0
259912,224.544,-626.479,0,0
261213,240.38,-627.286,0,0
262515,250.616,-639.824,0,0
263817,248.757,-654.289,0,0
265118,238.468,-664.767,0,0
266420,224.07,-668.082,0,0
267721.55,210.044,-663.519,0,0
269023.175,201.057,-654.608,0,0
270324.8,195.44,-645.312,0,0
271626.425,193.864,-635.675,0,0
272928.05,193.716,-629.268,0,0
274229.675,192.983,-621.272,0,0
275531.3,196.682,-613.331,0,0
276832.925,203.979,-608.886,0,0
278134.55,211.535,-610.838,0,0
279436.175,215.163,-617.314,0,0
280737.8,213.117,-625.341,0,0
282039.425,206.454,-630.825,0,0
283341,197.814,-632.82,0,0
284643,188.559,-631.432,0,0
285944,180.457,-627.071,0,0
287246,174.845,-620.333,0,0
288548,173.165,-613.873,0,0
289849,172.488,-610.004,0,0
291151,171.326,-607.687,0,0
292452,168.248,-604.98,0,0
293754,166.509,-599.771,0,0
295056,168.182,-595.78,0,0
296357,170.733,-595.522,0,0
297659,170.993,-598.231,0,0
298960.525,167.902,-601.201,0,0
300262.15,162.909,-603.018,0,0
301563.775,156.567,-603.396,0,0
302865.4,149.704,-601.628,0,0
304167.025,143.549,-598.462,0,0
305468.65,138.067,-593.986,0,0
306770.275,134.19,-588.835,0,0
308071.9,131.849,-584.172,0,0
309373.525,129.871,-580.925,0,0
310675.15,127.144,-578.372,0,0
311976.775,123.228,-575.707,0,0
313278.4,118.646,-571.47,0,0
314580,115.005,-565.48,0,0
315882,113.642,-558.684,0,0
317183,114.291,-553.531,0,0
318485,114.998,-550.14,0,0
319787,114.926,-547.229,0,0
321088,115.036,-544.297,0,0
322390,116.2,-542.189,0,0
323691,116.785,-542.174,0,0
324993,115.555,-543.268,0,0
326295,112.293,-543.852,0,0
327596,107.88,-543.143,0,0
328898,103.484,-541.282,0,0
330200,99.3197,-538.723,0,0
331501.125,95.1271,-535.743,0,0
332802.75,90.7848,-532.233,0,0
334104.375,86.5024,-527.745,0,0
335406.0,82.7297,-522.296,0,0
336707.625,79.9848,-516.31,0,0
338009.25,77.9472,-510.229,0,0
339310.875,76.5847,-503.687,0,0
340612.5,76.7042,-496.907,0,0
341914.125,78.563,-491.048,0,0
343215.75,81.2728,-487.14,0,0
344517.375,83.1562,-485.229,0,0
345819.0,83.3234,-483.485,0,0
347121,83.0681,-481.316,0,0
348422,82.3731,-478.783,0,0
349724,81.8537,-475.302,0,0
351025,82.7407,-471.592,0,0
352327,84.5359,-469.828,0,0
353629,84.7094,-469.433,0,0
354930,83.3123,-468.545,0,0
356232,81.6421,-466.588,0,0
357534,79.9072,-463.9,0,0
358835,78.7484,-460.288,0,0
360137,78.6534,-456.945,0,0
361438,78.5704,-454.193,0,0
362740.1,78.2756,-451.28,0,0
364041.725,78.8486,-447.894,0,0
365343.35,80.4141,-445.944,0,0
366644.975,80.8403,-445.632,0,0
367946.6,79.2487,-445.002,0,0
369248.225,76.8049,-442.529,0,0
370549.85,76.2451,-438.138,0,0
371851.475,77.9282,-435.481,0,0
373153.1,78.246,-435.112,0,0
374454.725,76.4509,-433.954,0,0
375756.35,74.645,-431.232,0,0
377057.975,73.824,-427.45,0,0
378359.6,74.2181,-424.106,0,0
379661,75.2222,-421.394,0,0
380963,75.9572,-419.959,0,0
382264,75.959,-418.41,0,0
383566,75.8492,-416.969,0,0
384868,75.028,-415.731,0,0
386169,73.7599,-413.778,0,0
387471,72.4861,-411.252,0,0
388773,71.2689,-408.047,0,0
390074,70.7959,-404.02,0,0
391376,71.5015,-399.892,0,0
392677,73.472,-396.277,0,0
393979,75.8996,-393.995,0,0
395280.7,78.17,-392.759,0,0
396582.325,80.0112,-392.284,0,0
397883.95,81.0523,-392.597,0,0
399185.575,81.0366,-393.067,0,0
400006.6,80.5409,-393.173,0,0