File: Accelerated corrosion test data/2025-10-14_06-00-04/sample_2.csv
Frequency (Hz),Impedance (ohms),Phase (Radians),Temperature (C),Humidity (%)
10000.0,230.794,-11408.9,0,0
11301.625,205.217,-10104.7,0,0
12603.25,185.02,-9071.83,0,0
13904.875,187.383,-8229.24,0,0
15206.5,164.117,-7538.75,0,0
16508.125,144.045,-6945.08,0,0
17809.75,133.664,-6438.43,0,0
19111.375,129.479,-5999.85,0,0
20413.0,118.924,-5617.17,0,0
21714.625,127.477,-5288.99,0,0
23016.25,112.813,-4993.08,0,0
24317.875,103.345,-4727.79,0,0
25619.5,98.2212,-4484.5,0,0
26921.1,94.9404,-4266.34,0,0
28222.7,90.5158,-4068.1,0,0
29524.4,93.8467,-3884.35,0,0
30826,88.2254,-3730.33,0,0
32127.6,82.4232,-3576.37,0,0
33429.2,80.1564,-3438.5,0,0
34730.9,76.0606,-3307.71,0,0
36032.5,73.3781,-3186.76,0,0
37334.1,71.1987,-3073.42,0,0
38635.7,69.1928,-2968.48,0,0
39937.4,67.17,-2869.76,0,0
41239,65.8553,-2777.06,0,0
42540.6,64.5323,-2690.55,0,0
43842.225,63.3597,-2608.65,0,0
45143.85,62.0614,-2531.23,0,0
46445.475,61.4843,-2458.94,0,0
47747.1,60.7346,-2389.69,0,0
49048.725,60.7352,-2325.87,0,0
50350.35,58.0786,-2263.88,0,0
51651.975,56.878,-2204.9,0,0
52953.6,55.3433,-2147.79,0,0
54255.225,54.6443,-2093.14,0,0
55556.85,54.0679,-2041.22,0,0
56858.475,54.0287,-1991.54,0,0
58160.1,54.3406,-1944.33,0,0
59461.7,54.8154,-1898.41,0,0
60763.3,56.3091,-1856.08,0,0
62065,59.108,-1817.81,0,0
63366.6,55.7339,-1781.11,0,0
64668.2,53.2437,-1742.96,0,0
65969.8,50.9026,-1703.88,0,0
67271.5,51.5222,-1666.66,0,0
68573.1,53.5749,-1632.78,0,0
69874.7,56.0574,-1602.56,0,0
71176.3,52.7503,-1574.33,0,0
72478,48.009,-1543.91,0,0
73779.6,45.3255,-1511.17,0,0
75081.2,45.3837,-1478.85,0,0
76382.825,47.0774,-1448.53,0,0
77684.45,49.8623,-1420.34,0,0
78986.075,53.1073,-1396.18,0,0
80287.7,51.8699,-1374.68,0,0
81589.325,49.323,-1349.69,0,0
82890.95,48.1716,-1323.99,0,0
84192.575,48.9269,-1299.28,0,0
85494.2,49.5569,-1275.69,0,0
86795.825,50.5999,-1253.8,0,0
88097.45,51.1528,-1232.53,0,0
89399.075,51.4656,-1211.11,0,0
90700.7,51.33,-1190.95,0,0
92002.3,52.9753,-1169.76,0,0
93303.9,55.4113,-1151.09,0,0
94605.6,55.4552,-1134.34,0,0
95907.2,54.4785,-1114.83,0,0
97208.8,57.8258,-1097.84,0,0
98510.4,57.5882,-1084.17,0,0
99812.1,53.3688,-1069.38,0,0
101114,50.5916,-1052.15,0,0
102415,47.036,-1031.96,0,0
103717,46.1736,-1010.96,0,0
105019,49.3879,-990.6,0,0
106320.175,54.2014,-973.607,0,0
107621.8,57.6882,-961.722,0,0
108923.425,56.2107,-949.622,0,0
110225.05,52.79,-934.423,0,0
111526.675,51.758,-916.634,0,0
112828.3,52.1415,-899.152,0,0
114129.925,53.696,-882.054,0,0
115431.55,56.5145,-865.54,0,0
116733.175,59.9849,-850.222,0,0
118034.8,63.9438,-836.196,0,0
119336.425,67.5827,-824.054,0,0
120638.05,70.0586,-813.6,0,0
121939.675,69.4767,-802.584,0,0
123241,68.6833,-789.686,0,0
124543,68.1488,-776.004,0,0
125845,68.3289,-761.21,0,0
127146,69.6984,-746.008,0,0
128448,72.7072,-731.671,0,0
129749,75.4884,-718.738,0,0
131051,78.2223,-705.928,0,0
132353,79.5636,-693.859,0,0
133654,80.8173,-680.209,0,0
134956,82.1663,-666.306,0,0
136258,84.3505,-651.37,0,0
137559,87.2105,-636.25,0,0
138860.775,90.3915,-621.408,0,0
140162.4,93.3376,-605.168,0,0
141464.025,99.0438,-586.254,0,0
142765.65,108.634,-569.006,0,0
144067.275,118.651,-553.769,0,0
145368.9,129.924,-538.467,0,0
146670.525,142.797,-524.224,0,0
147972.15,158.128,-510.193,0,0
149273.775,178.655,-497.137,0,0
150575.4,205.797,-493.283,0,0
151877.025,228.017,-503.973,0,0
153178.65,236.593,-518.704,0,0
154480,235.323,-529.707,0,0
155782,231.271,-532.663,0,0
157084,225.831,-532.535,0,0
158385,221.735,-525.719,0,0
159687,222.111,-519.226,0,0
160988,222.992,-512.455,0,0
162290,231.497,-508.934,0,0
163592,227.01,-515.828,0,0
164893,213.897,-513.142,0,0
166195,200.795,-499.461,0,0
167497,193.475,-480.464,0,0
168798,191.26,-458.346,0,0
170100,192.78,-436.431,0,0
171401.375,197.274,-413.869,0,0
172703.0,205.852,-390.031,0,0
174004.625,218.183,-365.851,0,0
175306.25,237.685,-341.561,0,0
176607.875,263.621,-324.999,0,0
177909.5,291.193,-314.584,0,0
179211.125,312.559,-315.458,0,0
180512.75,321.332,-313.506,0,0
181814.375,328.042,-297.788,0,0
183116.0,344.347,-277.71,0,0
184417.625,369.021,-254.312,0,0
185719.25,403.732,-236.349,0,0
187021,441.138,-224.511,0,0
188322,483.863,-216.942,0,0
189624,524.172,-215.514,0,0
190926,569.197,-210.718,0,0
192227,629.42,-210.13,0,0
193529,702.718,-228.491,0,0
194831,769.663,-276.774,0,0
196132,819.515,-337.25,0,0
197434,859.168,-402.66,0,0
198735,889.787,-483.419,0,0
200037,895.582,-566.712,0,0
201339,886.479,-655.106,0,0
202640.35,849.828,-733.301,0,0
203941.975,798.467,-792.834,0,0
205243.6,745.653,-839.235,0,0
206545.225,682.928,-865.311,0,0
207846.85,630.975,-873.068,0,0
209148.475,594.804,-878.093,0,0
210450.1,555.854,-890.906,0,0
211751.725,509.477,-893.974,0,0
213053.35,470.158,-882.91,0,0
214354.975,439.386,-868.798,0,0
215656.6,414.717,-854.382,0,0
216958.225,395.148,-838.323,0,0
218259.85,380.976,-823.082,0,0
219561,371.289,-809.009,0,0
220863,364.272,-798.043,0,0
222165,360.973,-787.968,0,0
223466,360.011,-784.182,0,0
224768,356.239,-783.06,0,0
226070,351.691,-780.896,0,0
227371,350.195,-781.52,0,0
228673,348.239,-787.215,0,0
229974,340.145,-797.193,0,0
231276,326.088,-804.758,0,0
232578,310.107,-809.207,0,0
233879,292.569,-810.534,0,0
235180.95,275.041,-808.992,0,0
236482.575,258.049,-805.536,0,0
237784.2,241.106,-800.023,0,0
239085.825,225.546,-791.986,0,0
240387.45,211.862,-782.553,0,0
241689.075,200.212,-772.627,0,0
242990.7,190.531,-762.164,0,0
244292.325,182.226,-753.517,0,0
245593.95,173.825,-746.219,0,0
246895.575,162.658,-739.832,0,0
248197.2,149.603,-729.209,0,0
249498.825,138.655,-715.588,0,0
250800,129.741,-700.083,0,0
252102,124.228,-682.997,0,0
253404,121.957,-666.942,0,0
254705,121.04,-651.539,0,0
256007,122.128,-635.858,0,0
257309,126.5,-621.553,0,0
258610,132.243,-609.528,0,0
259912,139.263,-598.81,0,0
261213,147.911,-590.711,0,0
262515,156.959,-585.435,0,0
263817,165.322,-583.058,0,0
265118,172.495,-582.893,0,0
266420,177.093,-584.337,0,0
267721.55,179.841,-585.503,0,0
269023.175,180.717,-586.483,0,0
270324.8,180.352,-584.719,0,0
271626.425,182.691,-580.677,0,0
272928.05,188.331,-576.987,0,0
274229.675,198.286,-576.176,0,0
275531.3,211.047,-583.924,0,0
276832.925,215.784,-601.182,0,0
278134.55,209.342,-616.917,0,0
279436.175,198.214,-627.267,0,0
280737.8,185.179,-632.908,0,0
282039.425,172.519,-635.464,0,0
283341,157.753,-634.556,0,0
284643,146.76,-629.459,0,0
285944,134.123,-625.6,0,0
287246,120.507,-614.386,0,0
288548,113.012,-597.284,0,0
289849,115.167,-578.262,0,0
291151,126.868,-565.377,0,0
292452,142.167,-564.595,0,0
293754,148.346,-574.03,0,0
295056,144.77,-578.477,0,0
296357,146.659,-578.342,0,0
297659,147.03,-588.029,0,0
298960.525,137.949,-594.25,0,0
300262.15,128.099,-595.16,0,0
301563.775,119.878,-591.824,0,0
302865.4,115.858,-588.72,0,0
304167.025,111.423,-588.602,0,0
305468.65,104.109,-588.463,0,0
306770.275,95.5483,-585.742,0,0
308071.9,87.7267,-580.61,0,0
309373.525,81.6068,-574.397,0,0
310675.15,76.5973,-568.278,0,0
311976.775,72.1202,-561.815,0,0
313278.4,68.6158,-555.096,0,0
314580,65.886,-548.73,0,0
315882,63.3913,-542.442,0,0
317183,61.5832,-536.104,0,0
318485,60.3574,-530.068,0,0
319787,59.4496,-524.485,0,0
321088,58.4236,-519.213,0,0
322390,57.4302,-513.748,0,0
323691,56.5568,-508.013,0,0
324993,56.4415,-501.435,0,0
326295,58.573,-495.05,0,0
327596,61.8553,-491.188,0,0
328898,63.9513,-488.985,0,0
330200,65.4421,-487.173,0,0
331501.125,66.4058,-486.397,0,0
332802.75,65.6917,-486.121,0,0
334104.375,63.2288,-484.934,0,0
335406.0,60.7731,-482.161,0,0
336707.625,58.8472,-478.799,0,0
338009.25,57.2054,-475.024,0,0
339310.875,55.8343,-470.923,0,0
340612.5,54.8911,-466.633,0,0
341914.125,54.5003,-462.295,0,0
343215.75,54.3606,-457.988,0,0
344517.375,54.7215,-453.625,0,0
345819.0,55.6029,-449.483,0,0
347121,56.7813,-445.736,0,0
348422,58.1337,-442.346,0,0
349724,59.7342,-439.359,0,0
351025,61.4938,-436.879,0,0
352327,62.8777,-434.97,0,0
353629,63.8891,-433.051,0,0
354930,65.0313,-431.04,0,0
356232,66.2363,-429.195,0,0
357534,67.726,-427.528,0,0
358835,69.4395,-426.543,0,0
360137,70.7777,-426.372,0,0
361438,71.3198,-426.637,0,0
362740.1,71.006,-426.826,0,0
364041.725,70.2322,-426.669,0,0
365343.35,69.1704,-426.193,0,0
366644.975,67.7582,-425.143,0,0
367946.6,66.9088,-423.407,0,0
369248.225,66.9321,-422.075,0,0
370549.85,66.4042,-421.769,0,0
371851.475,65.01,-421.057,0,0
373153.1,63.7293,-419.752,0,0
374454.725,62.6311,-418.667,0,0
375756.35,61.1081,-417.732,0,0
377057.975,59.3787,-416.195,0,0
378359.6,57.9569,-414.923,0,0
379661,55.2193,-413.61,0,0
380963,52.8232,-409.983,0,0
382264,52.8433,-407.184,0,0
383566,51.8218,-405.888,0,0
384868,49.7797,-403.948,0,0
386169,47.7289,-401.197,0,0
387471,46.2388,-397.842,0,0
388773,45.1832,-394.408,0,0
390074,44.8409,-390.966,0,0
391376,44.9991,-388.182,0,0
392677,44.6008,-386.367,0,0
393979,43.0285,-384.028,0,0
395280.7,41.4563,-380.605,0,0
396582.325,40.7007,-376.585,0,0
397883.95,40.6289,-372.503,0,0
399185.575,41.1831,-368.79,0,0
400006.6,41.6231,-366.645,0,0