File: Accelerated corrosion test data/2025-10-14_06-00-04/sample_4.csv
Frequency (Hz),Impedance (ohms),Phase (Radians),Temperature (C),Humidity (%)
10000.0,262.107,-11872.1,0,0
11301.625,232.874,-10517.5,0,0
12603.25,212.206,-9435.59,0,0
13904.875,191.795,-8555.25,0,0
15206.5,180.316,-7830.2,0,0
16508.125,187.255,-7216.12,0,0
17809.75,155.228,-6709.06,0,0
19111.375,144.373,-6251.7,0,0
20413.0,139.782,-5851.3,0,0
21714.625,144.973,-5506.94,0,0
23016.25,124.241,-5206.72,0,0
24317.875,115.148,-4921.88,0,0
25619.5,112.093,-4669.02,0,0
26921.1,106.23,-4439.39,0,0
28222.7,121.118,-4237.09,0,0
29524.4,112.495,-4057.17,0,0
30826,98.3014,-3884.91,0,0
32127.6,99.2662,-3724.99,0,0
33429.2,89.4466,-3584.33,0,0
34730.9,84.5676,-3445.61,0,0
36032.5,81.0258,-3318.21,0,0
37334.1,79.2437,-3199.2,0,0
38635.7,76.6245,-3087.71,0,0
39937.4,76.7174,-2981.8,0,0
41239,79.9232,-2887.75,0,0
42540.6,78.5352,-2799.35,0,0
43842.225,73.4621,-2715.91,0,0
45143.85,70.8709,-2635.29,0,0
46445.475,69.9473,-2557.75,0,0
47747.1,69.5811,-2488.12,0,0
49048.725,65.6704,-2419.08,0,0
50350.35,64.1227,-2351.63,0,0
51651.975,63.5865,-2286.84,0,0
52953.6,65.248,-2224.02,0,0
54255.225,73.427,-2167.55,0,0
55556.85,71.3908,-2124.76,0,0
56858.475,65.3198,-2070.67,0,0
58160.1,66.0918,-2018.23,0,0
59461.7,70.3992,-1967.98,0,0
60763.3,79.9042,-1929.48,0,0
62065,69.5929,-1896.67,0,0
63366.6,63.925,-1851.35,0,0
64668.2,64.3714,-1807.86,0,0
65969.8,66.2633,-1767.13,0,0
67271.5,70.1611,-1731.28,0,0
68573.1,73.6078,-1702.29,0,0
69874.7,66.0988,-1672.3,0,0
71176.3,64.5443,-1638.11,0,0
72478,58.948,-1606.68,0,0
73779.6,57.475,-1570.28,0,0
75081.2,59.6078,-1537.41,0,0
76382.825,61.9839,-1508.62,0,0
77684.45,64.9194,-1480.88,0,0
78986.075,63.5968,-1458.44,0,0
80287.7,60.7107,-1431.57,0,0
81589.325,60.106,-1405.58,0,0
82890.95,58.8798,-1380.57,0,0
84192.575,57.6538,-1355.71,0,0
85494.2,56.9015,-1331.48,0,0
86795.825,56.113,-1307.89,0,0
88097.45,54.7756,-1285.25,0,0
89399.075,53.2216,-1261.11,0,0
90700.7,53.1661,-1237.96,0,0
92002.3,53.4592,-1214.79,0,0
93303.9,54.739,-1193.96,0,0
94605.6,53.3791,-1173.69,0,0
95907.2,52.7664,-1151.19,0,0
97208.8,53.5984,-1129.54,0,0
98510.4,54.9083,-1108.06,0,0
99812.1,57.4758,-1087.28,0,0
101114,61.7128,-1068.83,0,0
102415,60.9514,-1054.37,0,0
103717,58.1129,-1031.66,0,0
105019,61.8007,-1008.13,0,0
106320.175,68.3743,-987.632,0,0
107621.8,75.1702,-969.765,0,0
108923.425,83.52,-953.147,0,0
110225.05,91.7669,-940.536,0,0
111526.675,97.9245,-929.8,0,0
112828.3,102.884,-920.06,0,0
114129.925,106.22,-911.423,0,0
115431.55,108.148,-903.204,0,0
116733.175,107.671,-894.86,0,0
118034.8,105.543,-884.109,0,0
119336.425,106.342,-870.091,0,0
120638.05,111.771,-864.937,0,0
121939.675,104.638,-858.747,0,0
123241,99.8728,-846.333,0,0
124543,96.7616,-833.639,0,0
125845,94.9366,-821.397,0,0
127146,91.5027,-810.432,0,0
128448,86.7789,-798.856,0,0
129749,80.0309,-784.27,0,0
131051,75.2341,-766.416,0,0
132353,72.6598,-747.734,0,0
133654,71.9275,-728.881,0,0
134956,72.5717,-710.039,0,0
136258,74.6009,-691.639,0,0
137559,77.2094,-674.385,0,0
138860.775,79.148,-656.432,0,0
140162.4,82.4561,-637.515,0,0
141464.025,87.4451,-618.582,0,0
142765.65,93.354,-600.267,0,0
144067.275,100.064,-581.957,0,0
145368.9,107.678,-563.378,0,0
146670.525,117.22,-544.759,0,0
147972.15,127.976,-526.817,0,0
149273.775,140.378,-508.94,0,0
150575.4,155.01,-490.771,0,0
151877.025,173.76,-474.448,0,0
153178.65,195.969,-462.32,0,0
154480,217.579,-457.247,0,0
155782,234.656,-453.312,0,0
157084,249.644,-451.178,0,0
158385,264.866,-445.585,0,0
159687,285.626,-443.437,0,0
160988,302.808,-450.909,0,0
162290,309.88,-456.381,0,0
163592,314.774,-456.461,0,0
164893,323.108,-450.25,0,0
166195,338.42,-442.417,0,0
167497,365.374,-441.594,0,0
168798,391.734,-457.12,0,0
170100,409.83,-485.514,0,0
171401.375,406.554,-523.553,0,0
172703.0,382.39,-549.976,0,0
174004.625,349.284,-555.94,0,0
175306.25,321.265,-545.257,0,0
176607.875,303.029,-523.419,0,0
177909.5,296.495,-499.942,0,0
179211.125,295.777,-478.782,0,0
180512.75,299.524,-460.053,0,0
181814.375,303.57,-443.616,0,0
183116.0,306.646,-426.541,0,0
184417.625,310.924,-405.812,0,0
185719.25,319.176,-382.293,0,0
187021,331.61,-357.166,0,0
188322,349.419,-330.243,0,0
189624,374.242,-302.59,0,0
190926,407.801,-276.315,0,0
192227,450.259,-254.17,0,0
193529,500.537,-239.841,0,0
194831,555.897,-234.588,0,0
196132,615.036,-237.124,0,0
197434,681.79,-249.683,0,0
198735,754.457,-280.495,0,0
200037,825.228,-338.245,0,0
201339,874.685,-420.765,0,0
202640.35,893.681,-510.529,0,0
203941.975,893.094,-594.398,0,0
205243.6,872.348,-671.415,0,0
206545.225,842.479,-736.115,0,0
207846.85,802.129,-800.128,0,0
209148.475,742.693,-844.853,0,0
210450.1,684.318,-865.855,0,0
211751.725,633.884,-871.642,0,0
213053.35,595.145,-869.618,0,0
214354.975,566.208,-862.3,0,0
215656.6,550.443,-862.338,0,0
216958.225,529.581,-869.462,0,0
218259.85,508.017,-873.655,0,0
219561,487.502,-878.182,0,0
220863,464.486,-883.271,0,0
222165,440.873,-885.079,0,0
223466,418.38,-885.247,0,0
224768,396.813,-886.128,0,0
226070,371.396,-887.066,0,0
227371,343.523,-883.235,0,0
228673,315.292,-873.528,0,0
229974,291.535,-857.699,0,0
231276,273.054,-840.054,0,0
232578,258.701,-822.279,0,0
233879,247.837,-805.116,0,0
235180.95,239.88,-789.037,0,0
236482.575,233.043,-774.542,0,0
237784.2,227.991,-759.642,0,0
239085.825,226.311,-746.736,0,0
240387.45,225.139,-736.901,0,0
241689.075,223.524,-729.279,0,0
242990.7,220.459,-723.074,0,0
244292.325,215.609,-717.141,0,0
245593.95,209.126,-709.346,0,0
246895.575,203.712,-699.497,0,0
248197.2,200.763,-689.364,0,0
249498.825,198.311,-680.207,0,0
250800,196.448,-672.094,0,0
252102,192.452,-665.155,0,0
253404,186.485,-654.745,0,0
254705,182.544,-641.576,0,0
256007,180.438,-625.139,0,0
257309,183.655,-606.894,0,0
258610,192.452,-589.095,0,0
259912,207.649,-574.787,0,0
261213,225.941,-565.368,0,0
262515,246.14,-562.552,0,0
263817,267.825,-566.605,0,0
265118,285.177,-578.996,0,0
266420,297.973,-595.131,0,0
267721.55,304.872,-615.979,0,0
269023.175,301.818,-640.301,0,0
270324.8,286.898,-655.482,0,0
271626.425,276.237,-663.042,0,0
272928.05,266.389,-671.326,0,0
274229.675,254.151,-680.206,0,0
275531.3,235.997,-686.784,0,0
276832.925,215.432,-686.038,0,0
278134.55,195.868,-676.259,0,0
279436.175,185.675,-660.111,0,0
280737.8,184.422,-648.801,0,0
282039.425,181.965,-641.74,0,0
283341,182.133,-634.367,0,0
284643,181.581,-632.33,0,0
285944,177.518,-630.762,0,0
287246,170.789,-625.466,0,0
288548,165.306,-615.816,0,0
289849,166.908,-602.2,0,0
291151,176.509,-593.529,0,0
292452,188.508,-593.096,0,0
293754,197.334,-601.336,0,0
295056,198.323,-613.888,0,0
296357,190.409,-624.685,0,0
297659,178.897,-628.533,0,0
298960.525,169.122,-628.104,0,0
300262.15,160.624,-626.787,0,0
301563.775,152.095,-624.068,0,0
302865.4,144.686,-620.033,0,0
304167.025,137.789,-615.012,0,0
305468.65,132.396,-609.076,0,0
306770.275,128.409,-602.98,0,0
308071.9,126.078,-597.529,0,0
309373.525,124.257,-593.579,0,0
310675.15,121.222,-590.558,0,0
311976.775,117.676,-586.475,0,0
313278.4,114.829,-581.829,0,0
314580,113.007,-577.295,0,0
315882,111.693,-573.544,0,0
317183,110.575,-570.663,0,0
318485,108.902,-568.57,0,0
319787,106.812,-567.4,0,0
321088,102.908,-566.856,0,0
322390,96.6703,-565.081,0,0
323691,89.6834,-560.037,0,0
324993,85.1387,-553.042,0,0
326295,82.1201,-546.46,0,0
327596,79.4831,-539.783,0,0
328898,77.6537,-532.723,0,0
330200,77.4561,-525.505,0,0
331501.125,78.6788,-519.64,0,0
332802.75,80.0717,-515.513,0,0
334104.375,80.2792,-512.911,0,0
335406.0,78.9333,-509.889,0,0
336707.625,76.8127,-505.754,0,0
338009.25,75.3703,-500.106,0,0
339310.875,74.9015,-493.979,0,0
340612.5,76.0295,-487.487,0,0
341914.125,78.9508,-481.522,0,0
343215.75,83.4741,-477.977,0,0
344517.375,87.2564,-477.045,0,0
345819.0,89.1272,-477.494,0,0
347121,89.1851,-477.974,0,0
348422,87.9204,-477.801,0,0
349724,85.9056,-476.511,0,0
351025,83.8274,-474.332,0,0
352327,81.8933,-471.245,0,0
353629,80.9182,-467.311,0,0
354930,81.0805,-464.076,0,0
356232,80.9931,-461.417,0,0
357534,80.5289,-459.163,0,0
358835,79.3586,-456.465,0,0
360137,78.2812,-452.967,0,0
361438,77.8384,-448.808,0,0
362740.1,78.513,-444.894,0,0
364041.725,79.1584,-441.845,0,0
365343.35,79.1777,-438.65,0,0
366644.975,79.4218,-434.27,0,0
367946.6,81.0524,-429.638,0,0
369248.225,84.0646,-425.326,0,0
370549.85,88.2976,-421.963,0,0
371851.475,93.8705,-420.621,0,0
373153.1,98.8042,-422.252,0,0
374454.725,101.16,-425.96,0,0
375756.35,100.548,-428.599,0,0
377057.975,99.6274,-429.868,0,0
378359.6,98.5121,-430.696,0,0
379661,97.2393,-431.194,0,0
380963,95.4877,-431.237,0,0
382264,94.6726,-429.937,0,0
383566,95.4687,-430.841,0,0
384868,93.425,-433.809,0,0
386169,88.5013,-435.242,0,0
387471,82.7689,-433.491,0,0
388773,78.9614,-429.213,0,0
390074,78.2516,-424.802,0,0
391376,79.0102,-423.212,0,0
392677,77.6206,-424.056,0,0
393979,73.4041,-423.515,0,0
395280.7,68.9807,-420.712,0,0
396582.325,65.6234,-416.565,0,0
397883.95,63.1683,-412.203,0,0
399185.575,61.2529,-407.419,0,0
400006.6,60.4132,-404.266,0,0