File: Accelerated corrosion test data/2025-10-14_06-00-04/sample_1.csv
Frequency (Hz),Impedance (ohms),Phase (Radians),Temperature (C),Humidity (%)
10000.0,240.116,-12188.9,0,0
11301.625,213.948,-10795.6,0,0
12603.25,194.645,-9697.51,0,0
13904.875,182.258,-8774.28,0,0
15206.5,185.45,-8042.82,0,0
16508.125,155.136,-7419.24,0,0
17809.75,145.589,-6884.05,0,0
19111.375,135.305,-6415.78,0,0
20413.0,157.225,-5973.85,0,0
21714.625,136.617,-5657.32,0,0
23016.25,122.291,-5354.67,0,0
24317.875,112.423,-5063.02,0,0
25619.5,104.852,-4798.75,0,0
26921.1,114.07,-4550.47,0,0
28222.7,110.945,-4347.01,0,0
29524.4,106.542,-4180.97,0,0
30826,101.047,-3994.38,0,0
32127.6,97.6554,-3836.34,0,0
33429.2,88.6147,-3693.11,0,0
34730.9,82.0048,-3551.35,0,0
36032.5,77.4958,-3420.44,0,0
37334.1,75.3088,-3298.48,0,0
38635.7,72.8328,-3184.89,0,0
39937.4,71.0362,-3078.25,0,0
41239,72.2628,-2979.86,0,0
42540.6,70.5214,-2887.57,0,0
43842.225,67.6197,-2800.51,0,0
45143.85,68.066,-2719.14,0,0
46445.475,65.3352,-2642.8,0,0
47747.1,64.1437,-2569.08,0,0
49048.725,61.5806,-2499.25,0,0
50350.35,59.7089,-2432.77,0,0
51651.975,58.7165,-2369.35,0,0
52953.6,57.7834,-2308.52,0,0
54255.225,56.7116,-2251.67,0,0
55556.85,55.8972,-2196.19,0,0
56858.475,54.9533,-2143.17,0,0
58160.1,54.7226,-2092.69,0,0
59461.7,54.5091,-2044.78,0,0
60763.3,54.4589,-1998.91,0,0
62065,53.2132,-1955.09,0,0
63366.6,52.4564,-1911.65,0,0
64668.2,53.0101,-1869.49,0,0
65969.8,55.1562,-1831.76,0,0
67271.5,53.7992,-1795.14,0,0
68573.1,53.3417,-1759.63,0,0
69874.7,52.3486,-1725.86,0,0
71176.3,50.4333,-1691.32,0,0
72478,48.5168,-1657.65,0,0
73779.6,48.2263,-1624.24,0,0
75081.2,48.5327,-1591.99,0,0
76382.825,49.3953,-1560.97,0,0
77684.45,50.4034,-1531.67,0,0
78986.075,51.9926,-1504.14,0,0
80287.7,51.2124,-1477.79,0,0
81589.325,50.6013,-1449.83,0,0
82890.95,51.2859,-1423.09,0,0
84192.575,52.8122,-1397.04,0,0
85494.2,55.0676,-1372.33,0,0
86795.825,56.0276,-1349.29,0,0
88097.45,56.3359,-1325.97,0,0
89399.075,58.1841,-1301.44,0,0
90700.7,61.4881,-1278.22,0,0
92002.3,67.7737,-1257.1,0,0
93303.9,74.9193,-1240.42,0,0
94605.6,73.6964,-1233.04,0,0
95907.2,66.7759,-1214.5,0,0
97208.8,64.7586,-1193.93,0,0
98510.4,64.3401,-1173.37,0,0
99812.1,63.2714,-1153.68,0,0
101114,63.3693,-1133.7,0,0
102415,63.393,-1112.2,0,0
103717,68.0781,-1090.94,0,0
105019,75.0923,-1073.5,0,0
106320.175,81.452,-1057.3,0,0
107621.8,87.8316,-1045,0,0
108923.425,92.259,-1034.19,0,0
110225.05,93.9931,-1026.21,0,0
111526.675,93.8837,-1013.54,0,0
112828.3,96.1332,-1003.94,0,0
114129.925,94.9929,-996.076,0,0
115431.55,91.4487,-986.549,0,0
116733.175,86.5771,-974.158,0,0
118034.8,82.4599,-959.565,0,0
119336.425,80.9558,-943.916,0,0
120638.05,81.514,-929.546,0,0
121939.675,80.479,-917.1,0,0
123241,79.0468,-902.715,0,0
124543,78.8251,-887.619,0,0
125845,79.6788,-872.872,0,0
127146,81.1175,-858.638,0,0
128448,83.1375,-844.185,0,0
129749,85.5744,-830.134,0,0
131051,90.6578,-816.987,0,0
132353,94.7802,-806.7,0,0
133654,97.5853,-796.24,0,0
134956,100.325,-785.861,0,0
136258,102.957,-775.025,0,0
137559,107.787,-765.175,0,0
138860.775,110.103,-758.924,0,0
140162.4,109.708,-750.697,0,0
141464.025,109.48,-740.38,0,0
142765.65,110.073,-729.386,0,0
144067.275,111.497,-718.027,0,0
145368.9,113.87,-706.887,0,0
146670.525,116.735,-696.581,0,0
147972.15,119.216,-687.717,0,0
149273.775,121.34,-676.85,0,0
150575.4,123.128,-669.102,0,0
151877.025,121.748,-657.567,0,0
153178.65,121.713,-642.624,0,0
154480,125.678,-626.029,0,0
155782,133.263,-609.185,0,0
157084,145.256,-594.71,0,0
158385,157.92,-585.066,0,0
159687,168.089,-574.459,0,0
160988,186.28,-564.221,0,0
162290,205.075,-564.371,0,0
163592,216.351,-566.827,0,0
164893,227.903,-568.624,0,0
166195,240.716,-575.049,0,0
167497,246.857,-586.452,0,0
168798,245.044,-598.543,0,0
170100,235.313,-604.591,0,0
171401.375,226.988,-601.698,0,0
172703.0,223.259,-596.983,0,0
174004.625,219.576,-592.124,0,0
175306.25,218.355,-586.419,0,0
176607.875,218.473,-583.405,0,0
177909.5,217.06,-580.164,0,0
179211.125,213.102,-578.541,0,0
180512.75,206.187,-574.501,0,0
181814.375,199.295,-566.118,0,0
183116.0,193.149,-555.727,0,0
184417.625,187.557,-542.198,0,0
185719.25,186.405,-525.407,0,0
187021,187.91,-510.402,0,0
188322,191.061,-495.619,0,0
189624,195,-480.667,0,0
190926,199.808,-465.745,0,0
192227,205.39,-449.018,0,0
193529,214.454,-431.999,0,0
194831,224.786,-415.242,0,0
196132,238.175,-397.897,0,0
197434,254.321,-380.409,0,0
198735,274.43,-364.326,0,0
200037,295.724,-349.028,0,0
201339,322.722,-332.923,0,0
202640.35,358.244,-318.431,0,0
203941.975,401.562,-312.782,0,0
205243.6,453.14,-321.887,0,0
206545.225,496.343,-350.346,0,0
207846.85,525.38,-388.966,0,0
209148.475,539.378,-428.716,0,0
210450.1,536.707,-465.327,0,0
211751.725,526.663,-483.406,0,0
213053.35,523.743,-486.805,0,0
214354.975,536.126,-494.062,0,0
215656.6,549.34,-507.592,0,0
216958.225,559.383,-524.245,0,0
218259.85,571.035,-540.264,0,0
219561,586.259,-557.233,0,0
220863,605.786,-583.351,0,0
222165,623.589,-621.897,0,0
223466,627.794,-671.668,0,0
224768,617.709,-720.943,0,0
226070,595.962,-766.899,0,0
227371,565.651,-808.737,0,0
228673,521.825,-841.882,0,0
229974,474.105,-858.708,0,0
231276,430.469,-861.803,0,0
232578,394.856,-857.198,0,0
233879,367.08,-851.154,0,0
235180.95,343.03,-846.877,0,0
236482.575,317.922,-841.982,0,0
237784.2,294.748,-834.632,0,0
239085.825,272.68,-825.545,0,0
240387.45,253.462,-813.87,0,0
241689.075,236.856,-802.339,0,0
242990.7,222.577,-790.138,0,0
244292.325,210.332,-778.683,0,0
245593.95,198.455,-767.926,0,0
246895.575,186.628,-756.383,0,0
248197.2,176.738,-743.567,0,0
249498.825,168.427,-731.029,0,0
250800,161.414,-718.802,0,0
252102,155.262,-706.711,0,0
253404,149.696,-694.328,0,0
254705,145.782,-681.349,0,0
256007,143.783,-669.262,0,0
257309,142.351,-657.756,0,0
258610,141.734,-646.125,0,0
259912,143.635,-634.271,0,0
261213,147.862,-624.508,0,0
262515,153.025,-617.223,0,0
263817,158.477,-612.03,0,0
265118,164.372,-608.862,0,0
266420,170.936,-609.713,0,0
267721.55,173.42,-615.712,0,0
269023.175,168.629,-622.317,0,0
270324.8,158.412,-623.679,0,0
271626.425,148.282,-618.466,0,0
272928.05,142.156,-609.554,0,0
274229.675,140.026,-600.587,0,0
275531.3,139.77,-593.151,0,0
276832.925,140.697,-586.515,0,0
278134.55,142.971,-581.604,0,0
279436.175,145.021,-579.162,0,0
280737.8,145.53,-578.011,0,0
282039.425,144.247,-577.401,0,0
283341,140.996,-575.62,0,0
284643,137.976,-571.844,0,0
285944,135.57,-568.318,0,0
287246,131.393,-563.701,0,0
288548,128.991,-555.289,0,0
289849,131.453,-547.49,0,0
291151,134.34,-543.815,0,0
292452,135.539,-541.375,0,0
293754,134.411,-538.197,0,0
295056,133.669,-531.927,0,0
296357,136.516,-524.806,0,0
297659,141.146,-520.26,0,0
298960.525,145.963,-516.467,0,0
300262.15,151.568,-513.957,0,0
301563.775,157.828,-512.593,0,0
302865.4,164.682,-514.147,0,0
304167.025,169.587,-517.52,0,0
305468.65,173.712,-521.628,0,0
306770.275,176.936,-527.201,0,0
308071.9,177.743,-534.517,0,0
309373.525,176.233,-540.607,0,0
310675.15,174.379,-546.973,0,0
311976.775,170.26,-553.95,0,0
313278.4,163.139,-559.755,0,0
314580,154.89,-562.303,0,0
315882,147.578,-563.725,0,0
317183,139.473,-564.276,0,0
318485,131.408,-562.955,0,0
319787,124.015,-560.652,0,0
321088,116.992,-557.195,0,0
322390,110.75,-552.581,0,0
323691,105.938,-546.842,0,0
324993,102.913,-541.386,0,0
326295,101.189,-536.631,0,0
327596,99.8595,-532.998,0,0
328898,98.672,-530.341,0,0
330200,96.9984,-528.518,0,0
331501.125,94.5033,-526.879,0,0
332802.75,91.3476,-525.163,0,0
334104.375,87.8273,-522.873,0,0
335406.0,84.0881,-520.04,0,0
336707.625,80.5078,-516.678,0,0
338009.25,77.144,-512.979,0,0
339310.875,74.1992,-508.807,0,0
340612.5,71.6614,-504.609,0,0
341914.125,69.4606,-500.605,0,0
343215.75,67.2366,-496.55,0,0
344517.375,65.1309,-492.491,0,0
345819.0,63.0854,-488.222,0,0
347121,61.2231,-483.749,0,0
348422,59.7774,-478.97,0,0
349724,58.8205,-474.345,0,0
351025,58.0615,-469.813,0,0
352327,57.6408,-465.493,0,0
353629,57.3046,-461.442,0,0
354930,57.0456,-457.369,0,0
356232,56.9353,-453.361,0,0
357534,56.9737,-449.539,0,0
358835,56.9806,-445.819,0,0
360137,57.1967,-442.075,0,0
361438,57.5756,-438.467,0,0
362740.1,57.848,-435.019,0,0
364041.725,58.2277,-431.473,0,0
365343.35,58.8005,-427.999,0,0
366644.975,59.3419,-424.827,0,0
367946.6,59.4501,-421.295,0,0
369248.225,60.1339,-416.891,0,0
370549.85,62.0571,-412.396,0,0
371851.475,65.061,-408.609,0,0
373153.1,68.6705,-406.086,0,0
374454.725,72.1025,-404.944,0,0
375756.35,74.6817,-404.659,0,0
377057.975,76.5812,-404.333,0,0
378359.6,78.3787,-404.333,0,0
379661,79.6294,-404.526,0,0
380963,81.0263,-404.495,0,0
382264,82.5819,-405.985,0,0
383566,82.4278,-408.209,0,0
384868,80.7503,-409.997,0,0
386169,78.0193,-410.847,0,0
387471,74.7797,-410.273,0,0
388773,72.1506,-408.505,0,0
390074,70.4052,-406.446,0,0
391376,69.1133,-404.58,0,0
392677,67.7416,-403.254,0,0
393979,65.6021,-401.867,0,0
395280.7,63.163,-399.567,0,0
396582.325,61.0164,-396.546,0,0
397883.95,59.5241,-393.101,0,0
399185.575,58.425,-389.587,0,0
400006.6,57.9381,-387.301,0,0