File: Accelerated corrosion test data/2025-10-04_06-00-03/sample_3.csv
Frequency (Hz),Impedance (ohms),Phase (Radians),Temperature (C),Humidity (%)
10000.0,251.138,-11758.7,0,0
11301.625,224.253,-10415.9,0,0
12603.25,203.052,-9347.78,0,0
13904.875,185.549,-8477.7,0,0
15206.5,172.982,-7750.55,0,0
16508.125,162.122,-7156.66,0,0
17809.75,158.646,-6628.57,0,0
19111.375,146.787,-6178.56,0,0
20413.0,157.213,-5777.52,0,0
21714.625,138.399,-5459.23,0,0
23016.25,128.063,-5153.81,0,0
24317.875,119.151,-4875.57,0,0
25619.5,113.888,-4629.42,0,0
26921.1,108.641,-4399.87,0,0
28222.7,103.879,-4193.63,0,0
29524.4,110.466,-4015.41,0,0
30826,101.018,-3844.93,0,0
32127.6,101.313,-3681.54,0,0
33429.2,99.7931,-3556.67,0,0
34730.9,88.0306,-3419.32,0,0
36032.5,83.3257,-3291.9,0,0
37334.1,80.5656,-3174.47,0,0
38635.7,78.3395,-3064.85,0,0
39937.4,75.8079,-2962.48,0,0
41239,74.561,-2865.85,0,0
42540.6,73.8312,-2776.53,0,0
43842.225,72.1847,-2691.22,0,0
45143.85,70.9606,-2611.8,0,0
46445.475,70.0023,-2536.01,0,0
47747.1,70.4273,-2463.55,0,0
49048.725,68.781,-2398.7,0,0
50350.35,66.8985,-2333.58,0,0
51651.975,66.5274,-2271.07,0,0
52953.6,66.8851,-2211.38,0,0
54255.225,69.5385,-2156.85,0,0
55556.85,67.1163,-2109.74,0,0
56858.475,61.8769,-2056.9,0,0
58160.1,61.5415,-2004.9,0,0
59461.7,62.0519,-1955.87,0,0
60763.3,63.3421,-1909.31,0,0
62065,65.6454,-1864.76,0,0
63366.6,69.1623,-1821.47,0,0
64668.2,77.7119,-1779.62,0,0
65969.8,92.2609,-1754.15,0,0
67271.5,76.5724,-1729.25,0,0
68573.1,76.5351,-1692.15,0,0
69874.7,75.9587,-1662.82,0,0
71176.3,70.6376,-1632.19,0,0
72478,69.2189,-1599.65,0,0
73779.6,67.5578,-1571.22,0,0
75081.2,63.9599,-1542.94,0,0
76382.825,60.5238,-1513.64,0,0
77684.45,58.1175,-1484.76,0,0
78986.075,56.0334,-1456.38,0,0
80287.7,54.5221,-1428.43,0,0
81589.325,53.5311,-1401.25,0,0
82890.95,53.0043,-1374.9,0,0
84192.575,52.7584,-1349.18,0,0
85494.2,52.6967,-1324.25,0,0
86795.825,52.9433,-1300.05,0,0
88097.45,53.4811,-1276.09,0,0
89399.075,54.7941,-1252.29,0,0
90700.7,57.1383,-1230.38,0,0
92002.3,59.9739,-1209.55,0,0
93303.9,63.2532,-1191.06,0,0
94605.6,64.7991,-1176.71,0,0
95907.2,59.0692,-1159.6,0,0
97208.8,58.0181,-1138.45,0,0
98510.4,57.9183,-1119.49,0,0
99812.1,57.1003,-1101.02,0,0
101114,56.2084,-1081.45,0,0
102415,57.4071,-1060.85,0,0
103717,61.2843,-1043.15,0,0
105019,64.9849,-1029.43,0,0
106320.175,63.5207,-1016.4,0,0
107621.8,60.4912,-1000.41,0,0
108923.425,58.6496,-982.484,0,0
110225.05,58.7194,-963.567,0,0
111526.675,61.2555,-945.78,0,0
112828.3,63.3294,-929.585,0,0
114129.925,64.9475,-913.409,0,0
115431.55,67.3401,-896.816,0,0
116733.175,71.1851,-880.426,0,0
118034.8,76.8494,-864.857,0,0
119336.425,83.6764,-853.263,0,0
120638.05,88.7148,-847.052,0,0
121939.675,86.598,-838.147,0,0
123241,86.9549,-825.273,0,0
124543,88.2416,-814.113,0,0
125845,89.1067,-803.916,0,0
127146,88.3542,-794.041,0,0
128448,86.32,-782.915,0,0
129749,84.7418,-769.495,0,0
131051,85.8969,-756.318,0,0
132353,85.408,-745.153,0,0
133654,84.8011,-732.976,0,0
134956,83.4897,-720.433,0,0
136258,82.2335,-706.7,0,0
137559,82.2168,-691.643,0,0
138860.775,83.6421,-678.229,0,0
140162.4,82.8869,-664.669,0,0
141464.025,82.9063,-650.185,0,0
142765.65,82.3631,-634.525,0,0
144067.275,82.7872,-617.322,0,0
145368.9,84.4033,-599.506,0,0
146670.525,87.0642,-580.558,0,0
147972.15,91.6426,-560.883,0,0
149273.775,98.2969,-540.572,0,0
150575.4,108.566,-520.131,0,0
151877.025,121.622,-503.375,0,0
153178.65,134.526,-489.64,0,0
154480,144.855,-477.278,0,0
155782,153.401,-461.603,0,0
157084,164.988,-444.761,0,0
158385,180.763,-431.838,0,0
159687,188.372,-417.163,0,0
160988,202.433,-389.551,0,0
162290,229.646,-363.798,0,0
163592,269.016,-345.469,0,0
164893,315.265,-337.617,0,0
166195,367.683,-352.441,0,0
167497,403.914,-384.245,0,0
168798,422.704,-422.593,0,0
170100,425.284,-461.25,0,0
171401.375,408.059,-479.284,0,0
172703.0,402.981,-481.778,0,0
174004.625,410.151,-486.405,0,0
175306.25,415.447,-506.49,0,0
176607.875,406.169,-527.016,0,0
177909.5,387.807,-541.537,0,0
179211.125,363.517,-534.973,0,0
180512.75,356.465,-520.036,0,0
181814.375,361.382,-515.615,0,0
183116.0,354.258,-523.402,0,0
184417.625,340.209,-518.073,0,0
185719.25,328.283,-504.594,0,0
187021,322.703,-482.642,0,0
188322,329.267,-463.376,0,0
189624,335.985,-450.235,0,0
190926,345.725,-436.047,0,0
192227,354.633,-422.612,0,0
193529,366.171,-405.553,0,0
194831,389.617,-386.335,0,0
196132,422.278,-385.254,0,0
197434,445.84,-396.337,0,0
198735,456.576,-405.936,0,0
200037,465.179,-406.595,0,0
201339,471.873,-404.788,0,0
202640.35,486.391,-394.919,0,0
203941.975,515.942,-389.861,0,0
205243.6,547.27,-400.323,0,0
206545.225,563.666,-418.916,0,0
207846.85,579.939,-423.542,0,0
209148.475,607.589,-429.334,0,0
210450.1,640.993,-449.15,0,0
211751.725,668.542,-478.791,0,0
213053.35,690.563,-513.314,0,0
214354.975,707.324,-555.305,0,0
215656.6,715.298,-599.892,0,0
216958.225,716.631,-648.276,0,0
218259.85,702.481,-696.063,0,0
219561,679.807,-735.265,0,0
220863,661.559,-770.271,0,0
222165,629.155,-808.388,0,0
223466,585.97,-834.317,0,0
224768,542.858,-838.348,0,0
226070,518.926,-834.22,0,0
227371,502.311,-842.673,0,0
228673,478.749,-854.572,0,0
229974,449.346,-862.204,0,0
231276,419.743,-864.073,0,0
232578,393.126,-860.984,0,0
233879,368.843,-856.961,0,0
235180.95,345.787,-852.409,0,0
236482.575,321.529,-847.089,0,0
237784.2,297.172,-837.517,0,0
239085.825,273.755,-823.212,0,0
240387.45,255.959,-804.642,0,0
241689.075,243.264,-786.429,0,0
242990.7,234.723,-768.231,0,0
244292.325,230.379,-752.786,0,0
245593.95,225.93,-741.174,0,0
246895.575,221.333,-729.65,0,0
248197.2,217.191,-718.074,0,0
249498.825,216.228,-707.106,0,0
250800,215.107,-700.348,0,0
252102,209.64,-694.742,0,0
253404,201.624,-684.501,0,0
254705,197.149,-669.417,0,0
256007,197.85,-652.694,0,0
257309,205.718,-638.619,0,0
258610,215.208,-630.81,0,0
259912,225.517,-623.672,0,0
261213,240.163,-624.014,0,0
262515,251.374,-635.007,0,0
263817,250.862,-649.774,0,0
265118,241.914,-661.381,0,0
266420,226.948,-665.844,0,0
267721.55,212.458,-661.874,0,0
269023.175,202.728,-653.093,0,0
270324.8,197.7,-643.236,0,0
271626.425,195.737,-634.165,0,0
272928.05,196.317,-626.764,0,0
274229.675,196.375,-620.713,0,0
275531.3,199.034,-613.583,0,0
276832.925,205.662,-608.886,0,0
278134.55,213.554,-611.024,0,0
279436.175,216.757,-618.898,0,0
280737.8,212.487,-626.686,0,0
282039.425,205.472,-630.486,0,0
283341,196.792,-632.01,0,0
284643,188.118,-629.948,0,0
285944,180.22,-625.738,0,0
287246,174.35,-618.502,0,0
288548,173.067,-610.885,0,0
289849,174.098,-607.064,0,0
291151,173.463,-605.356,0,0
292452,170.986,-603.27,0,0
293754,169.407,-599.089,0,0
295056,170.981,-595.58,0,0
296357,173.643,-596.147,0,0
297659,173.399,-599.637,0,0
298960.525,169.365,-603.342,0,0
300262.15,163.327,-604.943,0,0
301563.775,156.458,-604.886,0,0
302865.4,149.346,-602.777,0,0
304167.025,143.084,-599.261,0,0
305468.65,137.698,-594.713,0,0
306770.275,133.435,-589.63,0,0
308071.9,130.86,-584.445,0,0
309373.525,129.17,-581.043,0,0
310675.15,126.225,-578.526,0,0
311976.775,122.409,-575.423,0,0
313278.4,117.851,-571.202,0,0
314580,114.262,-564.894,0,0
315882,113.221,-557.964,0,0
317183,114.314,-552.833,0,0
318485,115.294,-549.977,0,0
319787,115.157,-547.562,0,0
321088,114.84,-544.922,0,0
322390,115.316,-542.901,0,0
323691,115.724,-542.591,0,0
324993,114.109,-543.321,0,0
326295,110.886,-543.566,0,0
327596,106.646,-542.641,0,0
328898,102.433,-540.458,0,0
330200,98.5477,-537.969,0,0
331501.125,94.3581,-535.207,0,0
332802.75,89.8737,-531.609,0,0
334104.375,85.5971,-527.072,0,0
335406.0,81.7465,-521.468,0,0
336707.625,79.1633,-515.267,0,0
338009.25,77.4956,-509.232,0,0
339310.875,76.2869,-502.879,0,0
340612.5,76.5673,-496.145,0,0
341914.125,78.6568,-490.547,0,0
343215.75,81.1616,-487.069,0,0
344517.375,82.7003,-485.154,0,0
345819.0,82.891,-483.449,0,0
347121,82.3591,-481.268,0,0
348422,81.6425,-478.487,0,0
349724,81.3268,-475.094,0,0
351025,82.2599,-471.754,0,0
352327,83.614,-470.118,0,0
353629,83.6108,-469.757,0,0
354930,81.8089,-468.807,0,0
356232,79.8222,-466.384,0,0
357534,78.3643,-463.512,0,0
358835,77.0487,-460.126,0,0
360137,76.5193,-456.543,0,0
361438,76.5947,-453.112,0,0
362740.1,76.7639,-450.098,0,0
364041.725,77.4465,-446.955,0,0
365343.35,78.9959,-445.027,0,0
366644.975,79.413,-444.88,0,0
367946.6,77.5631,-444.419,0,0
369248.225,74.6932,-441.501,0,0
370549.85,74.2737,-436.596,0,0
371851.475,76.1202,-433.84,0,0
373153.1,76.6487,-433.248,0,0
374454.725,75.1747,-432.231,0,0
375756.35,73.3298,-429.514,0,0
377057.975,72.5133,-425.768,0,0
378359.6,72.9694,-422.352,0,0
379661,73.8435,-419.609,0,0
380963,74.65,-417.691,0,0
382264,75.2652,-416.185,0,0
383566,75.2256,-415.202,0,0
384868,74.3052,-413.945,0,0
386169,72.9515,-411.911,0,0
387471,71.8447,-409.192,0,0
388773,70.9054,-406.083,0,0
390074,70.4912,-402.327,0,0
391376,71.1194,-398.33,0,0
392677,72.8855,-394.756,0,0
393979,75.3283,-392.265,0,0
395280.7,77.8202,-390.972,0,0
396582.325,79.7789,-390.69,0,0
397883.95,80.8958,-391.211,0,0
399185.575,80.6101,-391.886,0,0
400006.6,80.0017,-391.886,0,0