File: Accelerated corrosion test data/2025-10-04_06-00-03/sample_2.csv
Frequency (Hz),Impedance (ohms),Phase (Radians),Temperature (C),Humidity (%)
10000.0,222.872,-11381.5,0,0
11301.625,198.625,-10079.5,0,0
12603.25,179.094,-9048.92,0,0
13904.875,182.296,-8210.29,0,0
15206.5,160.417,-7519,0,0
16508.125,140.387,-6926.84,0,0
17809.75,129.559,-6420.93,0,0
19111.375,126.467,-5983.68,0,0
20413.0,115.975,-5602.16,0,0
21714.625,125.743,-5273.27,0,0
23016.25,109.994,-4979.67,0,0
24317.875,101.469,-4715.43,0,0
25619.5,95.5072,-4472.68,0,0
26921.1,93.6437,-4254.82,0,0
28222.7,88.7254,-4056.74,0,0
29524.4,92.3483,-3873.82,0,0
30826,86.7945,-3719.54,0,0
32127.6,80.8149,-3566.66,0,0
33429.2,78.8212,-3428.53,0,0
34730.9,74.7912,-3298.68,0,0
36032.5,72.3498,-3177.66,0,0
37334.1,70.1297,-3064.79,0,0
38635.7,67.9943,-2960.1,0,0
39937.4,66.2847,-2861.88,0,0
41239,64.9497,-2769.39,0,0
42540.6,63.794,-2683.14,0,0
43842.225,62.4665,-2601.57,0,0
45143.85,61.1528,-2524.25,0,0
46445.475,60.659,-2452.09,0,0
47747.1,59.9393,-2383.07,0,0
49048.725,60.0939,-2319.43,0,0
50350.35,57.3671,-2257.46,0,0
51651.975,56.2865,-2198.86,0,0
52953.6,54.591,-2141.81,0,0
54255.225,53.74,-2087.47,0,0
55556.85,53.5924,-2035.53,0,0
56858.475,53.3408,-1985.9,0,0
58160.1,53.6665,-1938.96,0,0
59461.7,54.1501,-1893.16,0,0
60763.3,55.6481,-1850.8,0,0
62065,58.4247,-1812.82,0,0
63366.6,55.6648,-1776.03,0,0
64668.2,52.7316,-1738.34,0,0
65969.8,50.3464,-1699.34,0,0
67271.5,51.0115,-1662.12,0,0
68573.1,53.1047,-1628.29,0,0
69874.7,55.4506,-1597.99,0,0
71176.3,52.5509,-1569.95,0,0
72478,47.4627,-1539.68,0,0
73779.6,44.898,-1506.83,0,0
75081.2,44.911,-1474.86,0,0
76382.825,46.6964,-1444.66,0,0
77684.45,49.3133,-1416.62,0,0
78986.075,52.6643,-1392.29,0,0
80287.7,51.6356,-1371.01,0,0
81589.325,48.9915,-1346.05,0,0
82890.95,47.7003,-1320.54,0,0
84192.575,48.5099,-1295.78,0,0
85494.2,49.2555,-1272.48,0,0
86795.825,49.9126,-1250.45,0,0
88097.45,50.4647,-1229.26,0,0
89399.075,50.8063,-1207.86,0,0
90700.7,51.076,-1187.48,0,0
92002.3,52.6255,-1166.42,0,0
93303.9,55.6538,-1148.19,0,0
94605.6,54.9676,-1131.79,0,0
95907.2,54.3317,-1111.95,0,0
97208.8,57.0263,-1095.43,0,0
98510.4,57.2446,-1081.38,0,0
99812.1,52.7415,-1067.22,0,0
101114,49.8842,-1049.08,0,0
102415,47.0637,-1029.2,0,0
103717,45.8744,-1008.3,0,0
105019,49.1232,-988.222,0,0
106320.175,54.1421,-971.272,0,0
107621.8,57.2975,-959.259,0,0
108923.425,55.9658,-947.518,0,0
110225.05,52.4977,-932.138,0,0
111526.675,51.3812,-914.658,0,0
112828.3,51.6788,-897.369,0,0
114129.925,53.345,-880.186,0,0
115431.55,55.774,-863.96,0,0
116733.175,58.9387,-848.378,0,0
118034.8,62.7457,-834.367,0,0
119336.425,66.4827,-821.512,0,0
120638.05,69.3262,-811.297,0,0
121939.675,68.8044,-800.008,0,0
123241,68.5195,-787.051,0,0
124543,68.4081,-773.912,0,0
125845,68.2593,-759.668,0,0
127146,69.3751,-744.485,0,0
128448,72.2799,-729.758,0,0
129749,75.6772,-716.473,0,0
131051,78.6966,-704.276,0,0
132353,80.5705,-692.609,0,0
133654,81.4983,-679.907,0,0
134956,82.7186,-666.3,0,0
136258,84.302,-651.997,0,0
137559,86.8396,-637.224,0,0
138860.775,89.1793,-622.512,0,0
140162.4,91.583,-606.016,0,0
141464.025,96.6413,-587.378,0,0
142765.65,105.447,-569.556,0,0
144067.275,115.046,-554.215,0,0
145368.9,125.404,-538.548,0,0
146670.525,137.156,-523.221,0,0
147972.15,152.387,-507.359,0,0
149273.775,172.929,-492.422,0,0
150575.4,200.342,-486.978,0,0
151877.025,225.22,-494.526,0,0
153178.65,237.508,-510.01,0,0
154480,238.866,-521.329,0,0
155782,236.428,-526.44,0,0
157084,233.184,-527.865,0,0
158385,229.389,-525.978,0,0
159687,225.636,-519.812,0,0
160988,227.824,-511.849,0,0
162290,236.544,-508.906,0,0
163592,234.097,-518.905,0,0
164893,219.749,-518.284,0,0
166195,203.584,-506.294,0,0
167497,195.745,-486.975,0,0
168798,191.346,-465.199,0,0
170100,193.25,-443.551,0,0
171401.375,196.016,-421.099,0,0
172703.0,204.11,-397.147,0,0
174004.625,216.309,-373.679,0,0
175306.25,234.259,-350.388,0,0
176607.875,256.308,-331.483,0,0
177909.5,285.818,-320.5,0,0
179211.125,305.664,-318.831,0,0
180512.75,317.112,-319.859,0,0
181814.375,320.503,-305.553,0,0
183116.0,335.119,-282.052,0,0
184417.625,359.219,-258.53,0,0
185719.25,394.672,-238.416,0,0
187021,432.102,-229.422,0,0
188322,473.729,-221.37,0,0
189624,513.012,-218.098,0,0
190926,557.118,-212.338,0,0
192227,617.754,-213.225,0,0
193529,687.263,-233.227,0,0
194831,748.809,-275.637,0,0
196132,801.156,-332.018,0,0
197434,842.996,-396.65,0,0
198735,871.22,-471.324,0,0
200037,879.279,-553.965,0,0
201339,873.241,-637.733,0,0
202640.35,841.111,-718.816,0,0
203941.975,788.156,-775.429,0,0
205243.6,741.375,-815.203,0,0
206545.225,686.677,-845.452,0,0
207846.85,638.534,-859.999,0,0
209148.475,600.013,-867.731,0,0
210450.1,561.834,-882.317,0,0
211751.725,515.301,-887.412,0,0
213053.35,474.911,-878.176,0,0
214354.975,443.089,-864.678,0,0
215656.6,418.226,-851.18,0,0
216958.225,397.787,-836.234,0,0
218259.85,382.82,-821.308,0,0
219561,372.281,-808.192,0,0
220863,364.176,-797.637,0,0
222165,358.952,-787.079,0,0
223466,357.57,-781.235,0,0
224768,354.418,-779.372,0,0
226070,350.71,-778.195,0,0
227371,348.369,-779.079,0,0
228673,345.646,-783.821,0,0
229974,338.429,-792.865,0,0
231276,325.135,-801.078,0,0
232578,308.41,-805.128,0,0
233879,291.435,-805.917,0,0
235180.95,274.868,-805.04,0,0
236482.575,257.317,-801.931,0,0
237784.2,240.213,-796.311,0,0
239085.825,224.901,-787.905,0,0
240387.45,211.324,-778.271,0,0
241689.075,200.004,-767.859,0,0
242990.7,191.05,-757.785,0,0
244292.325,183.714,-749.421,0,0
245593.95,175.648,-743.094,0,0
246895.575,164.392,-737.91,0,0
248197.2,150.766,-727.824,0,0
249498.825,138.919,-714.625,0,0
250800,129.794,-698.65,0,0
252102,124.09,-682.053,0,0
253404,121.399,-665.553,0,0
254705,120.528,-650.099,0,0
256007,121.803,-634.699,0,0
257309,125.688,-620.634,0,0
258610,131.385,-608.644,0,0
259912,138.045,-598.207,0,0
261213,146.298,-590.041,0,0
262515,155.05,-584.907,0,0
263817,163.188,-582.022,0,0
265118,170.202,-582.652,0,0
266420,173.255,-584.069,0,0
267721.55,175.589,-584.166,0,0
269023.175,176.056,-584.893,0,0
270324.8,174.529,-582.03,0,0
271626.425,176.993,-576.094,0,0
272928.05,183.076,-571.649,0,0
274229.675,193.675,-569.005,0,0
275531.3,207.802,-575.397,0,0
276832.925,215.266,-592.007,0,0
278134.55,210.66,-609.386,0,0
279436.175,200.125,-620.492,0,0
280737.8,188.347,-627.226,0,0
282039.425,175.576,-631.549,0,0
283341,160.125,-631.937,0,0
284643,148.066,-626.56,0,0
285944,135.962,-622.525,0,0
287246,122.521,-612.7,0,0
288548,113.695,-595.801,0,0
289849,115.446,-576.22,0,0
291151,127.942,-563.82,0,0
292452,141.52,-563.209,0,0
293754,148.07,-571.618,0,0
295056,144.407,-575.422,0,0
296357,148.64,-576.103,0,0
297659,147.296,-587.175,0,0
298960.525,137.56,-592.31,0,0
300262.15,128.471,-593.156,0,0
301563.775,120.028,-590.59,0,0
302865.4,115.408,-586.947,0,0
304167.025,111.295,-586.866,0,0
305468.65,103.942,-586.942,0,0
306770.275,95.0333,-584.106,0,0
308071.9,87.4168,-578.82,0,0
309373.525,81.0826,-572.95,0,0
310675.15,75.7931,-566.511,0,0
311976.775,71.4209,-559.742,0,0
313278.4,68.1788,-553.102,0,0
314580,65.4488,-546.852,0,0
315882,62.9703,-540.692,0,0
317183,60.9275,-534.242,0,0
318485,59.7518,-528.163,0,0
319787,58.8307,-522.663,0,0
321088,57.8066,-517.334,0,0
322390,56.8334,-511.899,0,0
323691,55.8962,-506.262,0,0
324993,55.7754,-499.65,0,0
326295,57.8047,-493.274,0,0
327596,60.9886,-489.299,0,0
328898,63.0636,-486.893,0,0
330200,64.5917,-485.1,0,0
331501.125,65.4442,-484.139,0,0
332802.75,64.7864,-483.792,0,0
334104.375,62.602,-482.505,0,0
335406.0,60.2988,-479.926,0,0
336707.625,58.1935,-476.628,0,0
338009.25,56.4383,-472.72,0,0
339310.875,55.2476,-468.558,0,0
340612.5,54.4628,-464.288,0,0
341914.125,53.9672,-460.094,0,0
343215.75,53.8399,-455.716,0,0
344517.375,54.2299,-451.357,0,0
345819.0,55.045,-447.208,0,0
347121,56.2004,-443.413,0,0
348422,57.5665,-439.976,0,0
349724,59.2548,-436.868,0,0
351025,61.1539,-434.448,0,0
352327,62.4678,-432.56,0,0
353629,63.5957,-430.564,0,0
354930,64.8174,-428.639,0,0
356232,66.0164,-426.908,0,0
357534,67.4245,-425.216,0,0
358835,69.1071,-423.981,0,0
360137,70.6768,-423.848,0,0
361438,71.1948,-424.109,0,0
362740.1,70.998,-424.17,0,0
364041.725,70.4594,-424.188,0,0
365343.35,69.3511,-423.691,0,0
366644.975,68.1713,-422.604,0,0
367946.6,67.4613,-421.105,0,0
369248.225,67.3515,-420.022,0,0
370549.85,66.7984,-419.691,0,0
371851.475,65.463,-418.96,0,0
373153.1,64.2706,-417.929,0,0
374454.725,63.0344,-417.013,0,0
375756.35,61.3865,-415.938,0,0
377057.975,59.7855,-414.455,0,0
378359.6,58.3082,-413.386,0,0
379661,55.4197,-412.077,0,0
380963,53.0003,-408.494,0,0
382264,52.8023,-405.667,0,0
383566,51.7431,-404.15,0,0
384868,49.8863,-402.101,0,0
386169,48.011,-399.444,0,0
387471,46.3155,-396.264,0,0
388773,45.2596,-392.668,0,0
390074,45.0176,-389.105,0,0
391376,45.4032,-386.49,0,0
392677,44.8334,-384.773,0,0
393979,43.2227,-382.452,0,0
395280.7,41.7129,-378.984,0,0
396582.325,40.9996,-374.993,0,0
397883.95,40.9785,-371.021,0,0
399185.575,41.4513,-367.362,0,0
400006.6,41.8902,-365.26,0,0