File: Accelerated corrosion test data/2025-10-04_06-00-03/sample_1.csv
Frequency (Hz),Impedance (ohms),Phase (Radians),Temperature (C),Humidity (%)
10000.0,238.324,-12226.9,0,0
11301.625,210.587,-10829.7,0,0
12603.25,193.705,-9728.22,0,0
13904.875,180.471,-8801.58,0,0
15206.5,186.515,-8072.58,0,0
16508.125,161.008,-7442.08,0,0
17809.75,146.377,-6905.07,0,0
19111.375,134.687,-6435.19,0,0
20413.0,154.969,-5992.77,0,0
21714.625,136.508,-5679.18,0,0
23016.25,124.212,-5370.79,0,0
24317.875,111.384,-5077.94,0,0
25619.5,103.406,-4812.9,0,0
26921.1,117.94,-4564.69,0,0
28222.7,110.247,-4360.13,0,0
29524.4,107.377,-4193.19,0,0
30826,99.9086,-4006.5,0,0
32127.6,97.8489,-3847.47,0,0
33429.2,88.4474,-3703.43,0,0
34730.9,81.8807,-3561.83,0,0
36032.5,77.3565,-3430.01,0,0
37334.1,74.744,-3307.58,0,0
38635.7,72.4921,-3193.91,0,0
39937.4,70.7244,-3086.86,0,0
41239,72.0636,-2987.75,0,0
42540.6,70.5324,-2895.45,0,0
43842.225,67.2965,-2808.01,0,0
45143.85,68.3545,-2726.63,0,0
46445.475,65.6667,-2650.19,0,0
47747.1,63.6318,-2576.36,0,0
49048.725,61.892,-2506.13,0,0
50350.35,59.7691,-2439.45,0,0
51651.975,58.7062,-2375.81,0,0
52953.6,57.4032,-2314.58,0,0
54255.225,57.0644,-2257.57,0,0
55556.85,55.7723,-2202.15,0,0
56858.475,54.706,-2149.1,0,0
58160.1,54.7615,-2098.47,0,0
59461.7,54.424,-2050.28,0,0
60763.3,54.4878,-2004.29,0,0
62065,53.2806,-1960.19,0,0
63366.6,52.4218,-1916.51,0,0
64668.2,53.0908,-1874.39,0,0
65969.8,55.3333,-1836.52,0,0
67271.5,53.623,-1799.42,0,0
68573.1,53.2136,-1764.21,0,0
69874.7,52.2415,-1730.15,0,0
71176.3,50.4461,-1695.55,0,0
72478,48.7225,-1661.96,0,0
73779.6,48.1622,-1628.32,0,0
75081.2,48.3413,-1596.16,0,0
76382.825,49.3983,-1564.91,0,0
77684.45,50.0593,-1535.47,0,0
78986.075,51.9216,-1507.75,0,0
80287.7,50.9366,-1481.35,0,0
81589.325,50.9344,-1453.67,0,0
82890.95,51.08,-1426.61,0,0
84192.575,52.9362,-1400.28,0,0
85494.2,54.9079,-1375.96,0,0
86795.825,55.9806,-1352.32,0,0
88097.45,56.4354,-1329.17,0,0
89399.075,57.7117,-1304.57,0,0
90700.7,61.5955,-1281.07,0,0
92002.3,68.0622,-1259.87,0,0
93303.9,75.5366,-1242.76,0,0
94605.6,74.1297,-1235.35,0,0
95907.2,67.3658,-1217.38,0,0
97208.8,64.465,-1196.69,0,0
98510.4,64.0953,-1176.6,0,0
99812.1,63.4487,-1156.03,0,0
101114,63.7811,-1136.65,0,0
102415,63.2177,-1114.56,0,0
103717,67.8692,-1093.42,0,0
105019,74.7235,-1075.38,0,0
106320.175,81.3597,-1059.45,0,0
107621.8,87.8149,-1047.31,0,0
108923.425,92.7483,-1036.28,0,0
110225.05,94.0297,-1027.32,0,0
111526.675,94.6073,-1015.59,0,0
112828.3,96.8405,-1005.79,0,0
114129.925,95.9821,-998.411,0,0
115431.55,91.8699,-989.007,0,0
116733.175,86.5516,-976.404,0,0
118034.8,82.5949,-961.397,0,0
119336.425,81.4891,-945.666,0,0
120638.05,82.021,-931.51,0,0
121939.675,80.9473,-919.067,0,0
123241,79.2106,-904.559,0,0
124543,79.1726,-889.359,0,0
125845,79.9959,-874.717,0,0
127146,81.0467,-860.342,0,0
128448,82.8949,-845.507,0,0
129749,86.0478,-831.073,0,0
131051,91.1525,-818.136,0,0
132353,95.2899,-807.484,0,0
133654,98.7173,-797.208,0,0
134956,100.945,-787.096,0,0
136258,104.102,-776.217,0,0
137559,108.62,-766.577,0,0
138860.775,110.913,-760.528,0,0
140162.4,110.32,-752.321,0,0
141464.025,110.116,-741.666,0,0
142765.65,111.28,-730.838,0,0
144067.275,111.917,-720.057,0,0
145368.9,114.191,-708.32,0,0
146670.525,117.374,-697.678,0,0
147972.15,120.318,-688.688,0,0
149273.775,121.78,-679.148,0,0
150575.4,122.881,-669.892,0,0
151877.025,122.229,-658.342,0,0
153178.65,122.885,-643.714,0,0
154480,125.722,-627.599,0,0
155782,133.817,-610.059,0,0
157084,145.838,-595.827,0,0
158385,157.939,-586.54,0,0
159687,169.09,-575.037,0,0
160988,186.339,-565.562,0,0
162290,202.985,-564.078,0,0
163592,217.336,-564.942,0,0
164893,229.325,-566.756,0,0
166195,243.7,-574.909,0,0
167497,247.988,-588.143,0,0
168798,245.308,-598.434,0,0
170100,237.092,-603.638,0,0
171401.375,230.568,-601.654,0,0
172703.0,224.436,-598.926,0,0
174004.625,220.5,-592.603,0,0
175306.25,220.941,-586.415,0,0
176607.875,220.204,-584.216,0,0
177909.5,217.442,-580.985,0,0
179211.125,215.095,-577.705,0,0
180512.75,209.51,-575.218,0,0
181814.375,202.227,-568.3,0,0
183116.0,193.363,-558.033,0,0
184417.625,188.497,-542.57,0,0
185719.25,187.729,-526.605,0,0
187021,189.093,-511.737,0,0
188322,191.415,-497.108,0,0
189624,194.648,-480.463,0,0
190926,200.886,-464.794,0,0
192227,207.864,-449.193,0,0
193529,215.219,-433.122,0,0
194831,225.401,-415.695,0,0
196132,238.756,-397.512,0,0
197434,256.005,-379.624,0,0
198735,275.873,-364.79,0,0
200037,296.762,-349.223,0,0
201339,323.926,-331.503,0,0
202640.35,359.744,-318.222,0,0
203941.975,402.918,-312.011,0,0
205243.6,455.252,-320.446,0,0
206545.225,499.279,-349.332,0,0
207846.85,528.199,-389.176,0,0
209148.475,541.113,-429.648,0,0
210450.1,538.315,-463.257,0,0
211751.725,528.682,-481.18,0,0
213053.35,529.577,-485.127,0,0
214354.975,540.724,-493.781,0,0
215656.6,552.976,-510.385,0,0
216958.225,559.114,-523.874,0,0
218259.85,574.447,-538.136,0,0
219561,590.316,-556.411,0,0
220863,609.887,-582.202,0,0
222165,626.681,-621.389,0,0
223466,632.591,-668.234,0,0
224768,625.523,-719.073,0,0
226070,605.168,-769.47,0,0
227371,570.991,-813.635,0,0
228673,526.049,-844.112,0,0
229974,479.833,-860.909,0,0
231276,436.025,-865.357,0,0
232578,400.271,-861.633,0,0
233879,370.148,-856.576,0,0
235180.95,344.237,-850.668,0,0
236482.575,320.007,-843.613,0,0
237784.2,299.065,-836.549,0,0
239085.825,277.439,-829.943,0,0
240387.45,255.926,-819.105,0,0
241689.075,238.548,-806.316,0,0
242990.7,224.111,-793.4,0,0
244292.325,212.243,-781.936,0,0
245593.95,200.166,-771.062,0,0
246895.575,188.485,-759.012,0,0
248197.2,178.767,-746.591,0,0
249498.825,170.3,-734.141,0,0
250800,163.037,-721.971,0,0
252102,156.626,-709.676,0,0
253404,151.134,-697.38,0,0
254705,146.739,-684.242,0,0
256007,144.533,-671.538,0,0
257309,143.368,-659.569,0,0
258610,143.566,-647.693,0,0
259912,145.774,-636.528,0,0
261213,149.754,-627.299,0,0
262515,154.289,-620.227,0,0
263817,159.467,-614.195,0,0
265118,166.229,-611.074,0,0
266420,172.266,-612.574,0,0
267721.55,174.538,-618.512,0,0
269023.175,169.056,-624.845,0,0
270324.8,158.724,-625.265,0,0
271626.425,149.639,-619.574,0,0
272928.05,144.052,-611.326,0,0
274229.675,141.549,-602.85,0,0
275531.3,141.057,-595.204,0,0
276832.925,141.945,-588.409,0,0
278134.55,144.233,-583.591,0,0
279436.175,146.525,-580.605,0,0
280737.8,147.309,-580.013,0,0
282039.425,145.877,-579.155,0,0
283341,143.135,-577.741,0,0
284643,140.149,-574.833,0,0
285944,136.553,-571.614,0,0
287246,131.992,-566.403,0,0
288548,129.539,-557.697,0,0
289849,132.16,-549.741,0,0
291151,135.067,-546.255,0,0
292452,135.337,-543.506,0,0
293754,134.68,-539.137,0,0
295056,134.691,-533.07,0,0
296357,137.619,-525.88,0,0
297659,142.79,-521.227,0,0
298960.525,147.877,-518.192,0,0
300262.15,153.463,-516.217,0,0
301563.775,159.204,-515.18,0,0
302865.4,165.534,-516.387,0,0
304167.025,171.085,-519.816,0,0
305468.65,174.148,-524.454,0,0
306770.275,177.072,-529.107,0,0
308071.9,178.593,-535.634,0,0
309373.525,177.533,-542.686,0,0
310675.15,174.944,-549.148,0,0
311976.775,170.553,-555.604,0,0
313278.4,163.651,-560.74,0,0
314580,156.093,-563.434,0,0
315882,148.918,-564.953,0,0
317183,140.989,-566.005,0,0
318485,132.64,-564.927,0,0
319787,125.249,-562.695,0,0
321088,118.005,-559.371,0,0
322390,111.349,-554.794,0,0
323691,106.14,-548.894,0,0
324993,103.109,-542.882,0,0
326295,101.541,-538.053,0,0
327596,100.398,-534.15,0,0
328898,99.3279,-531.46,0,0
330200,97.8628,-529.448,0,0
331501.125,95.8114,-527.966,0,0
332802.75,92.8146,-526.465,0,0
334104.375,89.2445,-524.407,0,0
335406.0,85.4455,-521.823,0,0
336707.625,81.7018,-518.567,0,0
338009.25,78.2896,-514.8,0,0
339310.875,75.0344,-510.807,0,0
340612.5,72.3679,-506.409,0,0
341914.125,70.2517,-502.232,0,0
343215.75,68.1595,-498.257,0,0
344517.375,65.9041,-494.297,0,0
345819.0,63.8073,-489.999,0,0
347121,61.9509,-485.391,0,0
348422,60.444,-480.684,0,0
349724,59.3344,-475.862,0,0
351025,58.7706,-471.364,0,0
352327,58.2387,-467.171,0,0
353629,57.7668,-462.961,0,0
354930,57.4887,-458.691,0,0
356232,57.4917,-454.533,0,0
357534,57.7329,-450.719,0,0
358835,57.8778,-447.119,0,0
360137,57.9545,-443.463,0,0
361438,58.3794,-439.911,0,0
362740.1,58.6837,-436.628,0,0
364041.725,58.9589,-433.195,0,0
365343.35,59.1599,-429.713,0,0
366644.975,59.5847,-426.102,0,0
367946.6,59.9973,-422.342,0,0
369248.225,60.8163,-417.91,0,0
370549.85,63.0329,-413.566,0,0
371851.475,65.9856,-410.079,0,0
373153.1,69.3894,-407.664,0,0
374454.725,72.6339,-406.454,0,0
375756.35,75.1468,-405.998,0,0
377057.975,77.0778,-405.569,0,0
378359.6,78.8812,-405.409,0,0
379661,80.3736,-405.531,0,0
380963,81.8619,-405.723,0,0
382264,83.2851,-407.104,0,0
383566,83.2052,-409.299,0,0
384868,81.5306,-411.147,0,0
386169,78.953,-411.877,0,0
387471,75.8581,-411.614,0,0
388773,72.9883,-409.985,0,0
390074,71.2042,-407.788,0,0
391376,69.9972,-406.023,0,0
392677,68.492,-404.8,0,0
393979,66.2416,-403.338,0,0
395280.7,63.7102,-400.999,0,0
396582.325,61.6111,-397.976,0,0
397883.95,60.0513,-394.556,0,0
399185.575,58.9009,-390.998,0,0
400006.6,58.348,-388.693,0,0