File: Accelerated corrosion test data/2025-10-21_18-00-04/sample_3.csv
Frequency (Hz),Impedance (ohms),Phase (Radians),Temperature (C),Humidity (%)
10000.0,252.172,-11905.4,0,0
11301.625,224.616,-10545.2,0,0
12603.25,203.438,-9463.59,0,0
13904.875,186.464,-8582.36,0,0
15206.5,175.223,-7843.69,0,0
16508.125,162.069,-7244.44,0,0
17809.75,157.187,-6711.85,0,0
19111.375,146.082,-6256.67,0,0
20413.0,166.507,-5853.24,0,0
21714.625,139.776,-5526.97,0,0
23016.25,128.494,-5218.27,0,0
24317.875,120.47,-4936.85,0,0
25619.5,114.588,-4686.21,0,0
26921.1,109.202,-4453.65,0,0
28222.7,104.482,-4244.9,0,0
29524.4,109.581,-4066.58,0,0
30826,101.969,-3893.17,0,0
32127.6,102.535,-3726.38,0,0
33429.2,99.4154,-3602.33,0,0
34730.9,87.9929,-3462.21,0,0
36032.5,83.6945,-3333.4,0,0
37334.1,80.4544,-3214.25,0,0
38635.7,78.1236,-3103.15,0,0
39937.4,75.8953,-2999.66,0,0
41239,74.5618,-2901.63,0,0
42540.6,73.4225,-2811.1,0,0
43842.225,72.0397,-2724.77,0,0
45143.85,71.0721,-2644.43,0,0
46445.475,69.9397,-2568.02,0,0
47747.1,70.1741,-2494.93,0,0
49048.725,68.6044,-2428.71,0,0
50350.35,66.5975,-2363.07,0,0
51651.975,66.179,-2299.55,0,0
52953.6,66.3359,-2239.3,0,0
54255.225,69.0637,-2183.65,0,0
55556.85,66.7584,-2135.48,0,0
56858.475,61.8511,-2082.55,0,0
58160.1,61.1607,-2030.1,0,0
59461.7,61.5347,-1980.28,0,0
60763.3,62.9323,-1933.22,0,0
62065,64.8302,-1887.95,0,0
63366.6,68.7517,-1843.58,0,0
64668.2,77.4923,-1801.34,0,0
65969.8,91.6705,-1775.68,0,0
67271.5,75.6967,-1749.93,0,0
68573.1,76.1324,-1711.78,0,0
69874.7,76.7973,-1682.14,0,0
71176.3,71.5831,-1651.93,0,0
72478,70.5717,-1618.73,0,0
73779.6,69.1811,-1590.51,0,0
75081.2,65.6045,-1562.54,0,0
76382.825,61.6789,-1533.43,0,0
77684.45,58.899,-1504.37,0,0
78986.075,56.39,-1475.62,0,0
80287.7,54.7202,-1447.3,0,0
81589.325,53.616,-1419.79,0,0
82890.95,52.9459,-1393.15,0,0
84192.575,52.5793,-1367.3,0,0
85494.2,52.4489,-1342.06,0,0
86795.825,52.4873,-1317.51,0,0
88097.45,52.9663,-1293.41,0,0
89399.075,54.243,-1269.52,0,0
90700.7,56.1111,-1247.58,0,0
92002.3,58.0919,-1226.78,0,0
93303.9,60.6423,-1207.33,0,0
94605.6,61.3019,-1192.38,0,0
95907.2,56.4506,-1174.1,0,0
97208.8,55.3248,-1152.58,0,0
98510.4,55.0874,-1132.48,0,0
99812.1,54.8424,-1113.15,0,0
101114,54.6835,-1093.28,0,0
102415,56.226,-1072.7,0,0
103717,60.0018,-1054.84,0,0
105019,63.1738,-1040.25,0,0
106320.175,63.2409,-1026.25,0,0
107621.8,61.5751,-1010.93,0,0
108923.425,59.6171,-993.804,0,0
110225.05,59.5007,-975.456,0,0
111526.675,61.5496,-957.369,0,0
112828.3,63.6508,-941.416,0,0
114129.925,64.8515,-925.549,0,0
115431.55,66.4242,-908.424,0,0
116733.175,69.7802,-891.549,0,0
118034.8,75.6842,-874.787,0,0
119336.425,82.386,-862.25,0,0
120638.05,89.7775,-856.241,0,0
121939.675,85.7754,-847.809,0,0
123241,86.2849,-833.745,0,0
124543,88.3457,-821.751,0,0
125845,90.469,-810.923,0,0
127146,90.7333,-801.162,0,0
128448,89.9662,-791.056,0,0
129749,88.7368,-778.807,0,0
131051,89.698,-766.841,0,0
132353,88.6382,-756.097,0,0
133654,87.3789,-744.417,0,0
134956,85.899,-731.806,0,0
136258,84.3128,-718.593,0,0
137559,83.6068,-703.422,0,0
138860.775,85.0014,-689.806,0,0
140162.4,84.4648,-676.781,0,0
141464.025,83.2745,-662.988,0,0
142765.65,82.1868,-646.868,0,0
144067.275,82.216,-629.638,0,0
145368.9,83.7683,-611.561,0,0
146670.525,86.0605,-592.784,0,0
147972.15,90.1164,-572.978,0,0
149273.775,96.103,-552.637,0,0
150575.4,106.055,-532.484,0,0
151877.025,118.377,-515.096,0,0
153178.65,129.997,-501.282,0,0
154480,139.952,-487.798,0,0
155782,149.69,-472.289,0,0
157084,161.066,-455.417,0,0
158385,176.262,-444.731,0,0
159687,181.478,-429.971,0,0
160988,193.901,-405.535,0,0
162290,215.416,-378.882,0,0
163592,247.585,-352.742,0,0
164893,296.429,-338.131,0,0
166195,350.137,-344.613,0,0
167497,393.096,-375.741,0,0
168798,413.715,-412.323,0,0
170100,415.952,-447.797,0,0
171401.375,408.221,-461.926,0,0
172703.0,409.805,-468.169,0,0
174004.625,415.542,-481.362,0,0
175306.25,422.269,-496.414,0,0
176607.875,424.239,-524.358,0,0
177909.5,394.732,-544.419,0,0
179211.125,369.72,-534.153,0,0
180512.75,366.136,-520.959,0,0
181814.375,371.27,-516.464,0,0
183116.0,370.082,-523.68,0,0
184417.625,356.25,-527.257,0,0
185719.25,338.125,-519.357,0,0
187021,329.55,-498.107,0,0
188322,329.888,-480.775,0,0
189624,332.04,-461.257,0,0
190926,341.933,-445.659,0,0
192227,349.946,-431.414,0,0
193529,361.585,-412.474,0,0
194831,381.604,-396.501,0,0
196132,411.323,-384.688,0,0
197434,438.288,-393.413,0,0
198735,450.194,-402.235,0,0
200037,457.947,-403.631,0,0
201339,467.361,-394.656,0,0
202640.35,492.632,-385.224,0,0
203941.975,521.015,-387.958,0,0
205243.6,546.592,-402.178,0,0
206545.225,557.818,-411.639,0,0
207846.85,582.59,-408.948,0,0
209148.475,617.926,-421.253,0,0
210450.1,650.368,-443.839,0,0
211751.725,678.178,-475.192,0,0
213053.35,701.664,-511.732,0,0
214354.975,713.648,-556.435,0,0
215656.6,720,-599.251,0,0
216958.225,717.39,-644.182,0,0
218259.85,707.401,-687.11,0,0
219561,690.991,-724.693,0,0
220863,674.968,-761.781,0,0
222165,647.414,-804.603,0,0
223466,600.763,-832.888,0,0
224768,559.619,-837.469,0,0
226070,535.487,-837.179,0,0
227371,517.458,-845.775,0,0
228673,491.256,-856.368,0,0
229974,465.805,-863.422,0,0
231276,436.675,-867.372,0,0
232578,410.008,-865.855,0,0
233879,385.69,-863.003,0,0
235180.95,363.239,-859.628,0,0
236482.575,338.4,-855.787,0,0
237784.2,313.944,-847.785,0,0
239085.825,290.999,-835.513,0,0
240387.45,271.321,-820.416,0,0
241689.075,254.403,-802.505,0,0
242990.7,245.362,-783.188,0,0
244292.325,239.214,-770.372,0,0
245593.95,231.377,-757.003,0,0
246895.575,226.013,-743.544,0,0
248197.2,221.403,-730.579,0,0
249498.825,221.348,-719.027,0,0
250800,219.711,-712.259,0,0
252102,214.838,-705.871,0,0
253404,207.916,-696.752,0,0
254705,202.173,-683.468,0,0
256007,200.804,-667.507,0,0
257309,205.756,-652.89,0,0
258610,213.75,-641.082,0,0
259912,226.11,-632.524,0,0
261213,243.738,-632.642,0,0
262515,253.703,-646.644,0,0
263817,251.407,-660.74,0,0
265118,242.586,-670.658,0,0
266420,228.653,-676.185,0,0
267721.55,213.448,-673.024,0,0
269023.175,202.041,-664.855,0,0
270324.8,195.236,-654.333,0,0
271626.425,192.802,-644.733,0,0
272928.05,190.735,-637.151,0,0
274229.675,189.659,-627.918,0,0
275531.3,192.122,-618.284,0,0
276832.925,198.805,-611.508,0,0
278134.55,206.86,-609.844,0,0
279436.175,213.722,-613.724,0,0
280737.8,215.218,-621.458,0,0
282039.425,211.302,-628.286,0,0
283341,204.047,-631.81,0,0
284643,196.251,-632.081,0,0
285944,188.853,-629.716,0,0
287246,183.215,-625.485,0,0
288548,179.383,-620.636,0,0
289849,178.2,-616.646,0,0
291151,176.392,-615.511,0,0
292452,171.803,-614.004,0,0
293754,167.659,-609.037,0,0
295056,167.249,-603.453,0,0
296357,169.038,-601.253,0,0
297659,169.291,-602.031,0,0
298960.525,167.365,-603.647,0,0
300262.15,163.33,-605.154,0,0
301563.775,157.625,-605.413,0,0
302865.4,151.178,-603.599,0,0
304167.025,145.514,-600.349,0,0
305468.65,140.532,-596.082,0,0
306770.275,136.64,-591.355,0,0
308071.9,133.908,-586.488,0,0
309373.525,132.358,-582.329,0,0
310675.15,130.906,-579.776,0,0
311976.775,127.72,-578.064,0,0
313278.4,123,-574.853,0,0
314580,118.828,-569.371,0,0
315882,117.052,-562.904,0,0
317183,116.915,-557.618,0,0
318485,117.367,-553.4,0,0
319787,117.587,-550.465,0,0
321088,117.503,-547.181,0,0
322390,118.992,-544.422,0,0
323691,120.448,-544.249,0,0
324993,119.843,-545.82,0,0
326295,116.842,-547.065,0,0
327596,112.4,-547.023,0,0
328898,107.588,-545.299,0,0
330200,103.297,-542.855,0,0
331501.125,99.0116,-540.156,0,0
332802.75,94.5793,-536.698,0,0
334104.375,90.1874,-532.401,0,0
335406.0,86.0809,-527.28,0,0
336707.625,82.9908,-521.278,0,0
338009.25,80.9226,-515.212,0,0
339310.875,79.1887,-509.13,0,0
340612.5,78.6491,-502.154,0,0
341914.125,80.0559,-495.593,0,0
343215.75,82.943,-491.128,0,0
344517.375,85.1878,-488.798,0,0
345819.0,85.9513,-487.467,0,0
347121,85.2861,-485.98,0,0
348422,83.7957,-483.29,0,0
349724,83.0389,-479.146,0,0
351025,84.1466,-475.289,0,0
352327,85.7251,-473.207,0,0
353629,86.2986,-472.346,0,0
354930,85.2167,-471.308,0,0
356232,83.6395,-469.513,0,0
357534,81.9328,-466.58,0,0
358835,81.2776,-463.056,0,0
360137,81.3619,-460.069,0,0
361438,81.0596,-457.728,0,0
362740.1,80.2897,-454.542,0,0
364041.725,80.8836,-450.976,0,0
365343.35,82.4654,-448.599,0,0
366644.975,83.5933,-448.018,0,0
367946.6,82.3419,-448.102,0,0
369248.225,79.6459,-445.811,0,0
370549.85,79.1198,-441.54,0,0
371851.475,80.5094,-439.03,0,0
373153.1,80.6972,-438.511,0,0
374454.725,78.9424,-437.175,0,0
375756.35,77.2995,-434.445,0,0
377057.975,76.485,-430.984,0,0
378359.6,76.6796,-427.493,0,0
379661,77.9327,-424.855,0,0
380963,78.5767,-423.539,0,0
382264,78.4628,-422.139,0,0
383566,78.106,-420.959,0,0
384868,76.876,-419.558,0,0
386169,75.3934,-417.358,0,0
387471,73.873,-414.478,0,0
388773,72.7804,-410.745,0,0
390074,72.6673,-406.397,0,0
391376,73.9788,-402.119,0,0
392677,76.2165,-399.014,0,0
393979,78.4111,-396.932,0,0
395280.7,80.6043,-395.503,0,0
396582.325,82.5868,-394.991,0,0
397883.95,83.8741,-395.148,0,0
399185.575,84.2877,-395.739,0,0
400006.6,84.0073,-396.184,0,0