File: Accelerated corrosion test data/2025-10-21_18-00-04/sample_5.csv
Frequency (Hz),Impedance (ohms),Phase (Radians),Temperature (C),Humidity (%)
10000.0,3781.29,-3292,0,0
11301.625,3464.19,-3212.04,0,0
12603.25,3192.08,-3143.43,0,0
13904.875,2953.32,-3082.4,0,0
15206.5,2741.02,-3026,0,0
16508.125,2549.75,-2969.06,0,0
17809.75,2377.6,-2904.92,0,0
19111.375,2221.28,-2840.82,0,0
20413.0,2079.04,-2777.96,0,0
21714.625,1950.54,-2712.49,0,0
23016.25,1832.7,-2648.36,0,0
24317.875,1725.06,-2586.19,0,0
25619.5,1625.95,-2527.2,0,0
26921.1,1539.19,-2465.81,0,0
28222.7,1455.38,-2408.31,0,0
29524.4,1377.51,-2352.25,0,0
30826,1304.97,-2299.4,0,0
32127.6,1238.44,-2247.26,0,0
33429.2,1177.21,-2195.91,0,0
34730.9,1121.37,-2143.97,0,0
36032.5,1068.26,-2095.82,0,0
37334.1,1019.26,-2048.64,0,0
38635.7,972.928,-2003.84,0,0
39937.4,930.659,-1959.15,0,0
41239,890.323,-1916.84,0,0
42540.6,854.909,-1875.47,0,0
43842.225,819.48,-1835.9,0,0
45143.85,786.198,-1797.45,0,0
46445.475,755.922,-1759.24,0,0
47747.1,728.169,-1722.14,0,0
49048.725,701.503,-1687.14,0,0
50350.35,677.096,-1654.04,0,0
51651.975,653.301,-1622.33,0,0
52953.6,630.392,-1591.02,0,0
54255.225,608.862,-1560.25,0,0
55556.85,588.6,-1530.46,0,0
56858.475,570.855,-1501.76,0,0
58160.1,552.458,-1475.67,0,0
59461.7,533.334,-1449.71,0,0
60763.3,516.356,-1422.5,0,0
62065,500.634,-1395.71,0,0
63366.6,486.516,-1370.26,0,0
64668.2,471.992,-1347.01,0,0
65969.8,457.888,-1323.07,0,0
67271.5,445.217,-1299.42,0,0
68573.1,432.805,-1277.34,0,0
69874.7,422.183,-1254.57,0,0
71176.3,411.385,-1234.05,0,0
72478,401.159,-1213.75,0,0
73779.6,391.872,-1193.53,0,0
75081.2,382.404,-1175.91,0,0
76382.825,371.467,-1157.86,0,0
77684.45,361.848,-1138.8,0,0
78986.075,352.717,-1120.43,0,0
80287.7,343.695,-1103.3,0,0
81589.325,334.723,-1085.83,0,0
82890.95,325.882,-1068.03,0,0
84192.575,317.302,-1050.61,0,0
85494.2,310.136,-1033.42,0,0
86795.825,302.127,-1017.22,0,0
88097.45,294.522,-999.949,0,0
89399.075,288.282,-982.459,0,0
90700.7,284.054,-966.34,0,0
92002.3,278.96,-951.778,0,0
93303.9,272.507,-937.923,0,0
94605.6,266.36,-922.886,0,0
95907.2,261.103,-907.874,0,0
97208.8,255.112,-893.605,0,0
98510.4,249.871,-878.482,0,0
99812.1,245.037,-863.828,0,0
101114,241.329,-849.965,0,0
102415,237.095,-836.977,0,0
103717,232.293,-823.854,0,0
105019,227.92,-810.736,0,0
106320.175,222.787,-797.416,0,0
107621.8,218.473,-783.325,0,0
108923.425,214.608,-769.563,0,0
110225.05,210.887,-755.906,0,0
111526.675,207.324,-742.206,0,0
112828.3,204.588,-728.051,0,0
114129.925,202.222,-714.516,0,0
115431.55,199.66,-701.242,0,0
116733.175,197.53,-687.698,0,0
118034.8,196.425,-674.334,0,0
119336.425,195.41,-662.226,0,0
120638.05,194,-650.644,0,0
121939.675,192.39,-638.863,0,0
123241,189.899,-627.111,0,0
124543,187.842,-614.037,0,0
125845,187.183,-601.396,0,0
127146,186.066,-589.656,0,0
128448,184.517,-577.804,0,0
129749,182.66,-565.533,0,0
131051,180.562,-552.513,0,0
132353,179.015,-538.151,0,0
133654,178.508,-523.451,0,0
134956,179,-508.784,0,0
136258,180.114,-493.81,0,0
137559,182.568,-479.277,0,0
138860.775,185.46,-465.68,0,0
140162.4,187.983,-452.309,0,0
141464.025,190.449,-439.124,0,0
142765.65,193.049,-425.546,0,0
144067.275,195.466,-411.732,0,0
145368.9,198.043,-397.075,0,0
146670.525,201.196,-381.56,0,0
147972.15,205.655,-365.374,0,0
149273.775,210.597,-348.967,0,0
150575.4,216.386,-331.012,0,0
151877.025,224.917,-312.31,0,0
153178.65,235.806,-293.406,0,0
154480,249.146,-275.37,0,0
155782,265.283,-258.719,0,0
157084,283.31,-245.103,0,0
158385,299.905,-233.027,0,0
159687,318.643,-220.393,0,0
160988,339.696,-209.839,0,0
162290,362.442,-202.146,0,0
163592,385.663,-198.362,0,0
164893,406.795,-198.196,0,0
166195,425.833,-198.672,0,0
167497,444.051,-199.432,0,0
168798,461.392,-201.227,0,0
170100,478.517,-202.79,0,0
171401.375,496.008,-206.032,0,0
172703.0,512.209,-210.157,0,0
174004.625,526.693,-214.76,0,0
175306.25,541.013,-217.885,0,0
176607.875,556.327,-220.984,0,0
177909.5,572.911,-225.446,0,0
179211.125,588.48,-231.543,0,0
180512.75,602.869,-237.346,0,0
181814.375,618.297,-241.582,0,0
183116.0,636.168,-247.239,0,0
184417.625,654,-255.731,0,0
185719.25,670.122,-265.02,0,0
187021,686.43,-273.066,0,0
188322,704.766,-279.803,0,0
189624,727.69,-287.86,0,0
190926,754.64,-299.809,0,0
192227,784.048,-317.941,0,0
193529,813.914,-343.896,0,0
194831,841.323,-377.969,0,0
196132,863.92,-418.928,0,0
197434,878.66,-465.123,0,0
198735,885.778,-516.673,0,0
200037,883.319,-567.419,0,0
201339,872.446,-618.134,0,0
202640.35,853.578,-666.321,0,0
203941.975,827.311,-709.571,0,0
205243.6,795.499,-747.593,0,0
206545.225,758.846,-778.941,0,0
207846.85,720.221,-802.951,0,0
209148.475,680.826,-820.444,0,0
210450.1,641.675,-832.428,0,0
211751.725,603.404,-838.93,0,0
213053.35,567.561,-840.135,0,0
214354.975,533.893,-837.849,0,0
215656.6,502.751,-832.737,0,0
216958.225,474.576,-824.467,0,0
218259.85,448.417,-814.817,0,0
219561,424.968,-802.984,0,0
220863,404.276,-789.107,0,0
222165,386.653,-774.293,0,0
223466,372.085,-758.98,0,0
224768,360.231,-743.913,0,0
226070,351.048,-729.313,0,0
227371,344.11,-715.361,0,0
228673,338.938,-702.622,0,0
229974,335.378,-690.715,0,0
231276,332.807,-680.046,0,0
232578,331.425,-670.099,0,0
233879,330.961,-661.356,0,0
235180.95,331.556,-653.7,0,0
236482.575,333.152,-647.171,0,0
237784.2,335.321,-642.464,0,0
239085.825,338.02,-639.376,0,0
240387.45,340.315,-638.134,0,0
241689.075,341.633,-638.71,0,0
242990.7,341.975,-640.291,0,0
244292.325,340.627,-642.638,0,0
245593.95,337.651,-644.759,0,0
246895.575,333.151,-645.651,0,0
248197.2,328.079,-644.292,0,0
249498.825,325.195,-639.232,0,0
250800,328.843,-634.05,0,0
252102,337.919,-635.904,0,0
253404,343.452,-647.368,0,0
254705,342.013,-661.703,0,0
256007,333.383,-675.281,0,0
257309,320.47,-685.439,0,0
258610,305.561,-691.357,0,0
259912,290.443,-693.376,0,0
261213,275.848,-693.034,0,0
262515,262.448,-690.629,0,0
263817,250.496,-686.799,0,0
265118,239.773,-682.028,0,0
266420,230.224,-676.862,0,0
267721.55,221.785,-671.782,0,0
269023.175,213.908,-666.971,0,0
270324.8,206.275,-662.49,0,0
271626.425,198.606,-657.467,0,0
272928.05,190.854,-652.092,0,0
274229.675,182.942,-646.405,0,0
275531.3,175.832,-639.959,0,0
276832.925,168.996,-633.006,0,0
278134.55,162.927,-625.362,0,0
279436.175,157.874,-617.358,0,0
280737.8,154.838,-609.039,0,0
282039.425,152.653,-601.853,0,0
283341,151.173,-595.622,0,0
284643,149.434,-590.216,0,0
285944,147.546,-585.164,0,0
287246,145.882,-580.235,0,0
288548,144.392,-575.855,0,0
289849,142.799,-572.127,0,0
291151,140.783,-568.6,0,0
292452,137.699,-565.195,0,0
293754,134.928,-561.13,0,0
295056,132.047,-556.742,0,0
296357,129.473,-551.804,0,0
297659,127.712,-546.642,0,0
298960.525,127.024,-541.927,0,0
300262.15,126.533,-538.167,0,0
301563.775,125.598,-535.189,0,0
302865.4,124.222,-532.391,0,0
304167.025,122.325,-529.768,0,0
305468.65,120.171,-526.792,0,0
306770.275,117.963,-523.511,0,0
308071.9,115.824,-520.189,0,0
309373.525,113.743,-516.69,0,0
310675.15,111.915,-513.156,0,0
311976.775,110.069,-509.571,0,0
313278.4,108.406,-505.992,0,0
314580,106.757,-502.312,0,0
315882,105.311,-498.708,0,0
317183,103.901,-495.2,0,0
318485,102.692,-491.73,0,0
319787,101.497,-488.377,0,0
321088,100.431,-485.238,0,0
322390,99.3329,-482.178,0,0
323691,98.0709,-479.234,0,0
324993,96.6819,-476.424,0,0
326295,95.2306,-473.38,0,0
327596,93.7033,-470.288,0,0
328898,92.4644,-466.986,0,0
330200,91.1768,-463.684,0,0
331501.125,90.1783,-460.398,0,0
332802.75,89.0624,-457.167,0,0
334104.375,88.0353,-454.025,0,0
335406.0,87.0356,-450.932,0,0
336707.625,86.1266,-447.87,0,0
338009.25,85.3625,-444.81,0,0
339310.875,84.4662,-441.791,0,0
340612.5,83.847,-438.728,0,0
341914.125,83.1776,-435.713,0,0
343215.75,82.3666,-432.849,0,0
344517.375,81.7149,-429.896,0,0
345819.0,80.9813,-427.047,0,0
347121,80.3184,-424.28,0,0
348422,79.3947,-421.66,0,0
349724,78.6938,-418.827,0,0
351025,77.9917,-416.016,0,0
352327,77.3164,-413.221,0,0
353629,76.6758,-410.37,0,0
354930,75.8864,-407.579,0,0
356232,75.3019,-404.724,0,0
357534,74.6031,-401.845,0,0
358835,73.9958,-398.981,0,0
360137,73.2201,-396.147,0,0
361438,72.6055,-393.256,0,0
362740.1,72.2558,-390.316,0,0
364041.725,71.8206,-387.29,0,0
365343.35,71.4612,-384.336,0,0
366644.975,71.1936,-381.363,0,0
367946.6,71.129,-378.348,0,0
369248.225,71.0291,-375.472,0,0
370549.85,71.15,-372.604,0,0
371851.475,71.3477,-369.829,0,0
373153.1,71.5531,-367.184,0,0
374454.725,71.8081,-364.806,0,0
375756.35,72.0838,-362.579,0,0
377057.975,72.0555,-360.546,0,0
378359.6,71.6237,-358.48,0,0
379661,71.2392,-356.15,0,0
380963,70.9118,-353.493,0,0
382264,70.8057,-350.941,0,0
383566,70.637,-348.579,0,0
384868,70.1802,-346.202,0,0
386169,69.9036,-343.537,0,0
387471,69.619,-340.813,0,0
388773,69.2799,-338.047,0,0
390074,69.3531,-335.107,0,0
391376,69.2758,-332.28,0,0
392677,69.3451,-329.383,0,0
393979,69.3485,-326.541,0,0
395280.7,69.5288,-323.67,0,0
396582.325,69.685,-320.801,0,0
397883.95,69.9576,-317.859,0,0
399185.575,70.3794,-314.904,0,0
400006.6,70.6611,-313.083,0,0