File: Accelerated corrosion test data/2025-10-21_18-00-04/sample_7.csv
Frequency (Hz),Impedance (ohms),Phase (Radians),Temperature (C),Humidity (%)
10000.0,272.696,-12103.8,0,0
11301.625,245.707,-10706.6,0,0
12603.25,259.792,-9663.59,0,0
13904.875,207.644,-8763.77,0,0
15206.5,196.581,-8020.92,0,0
16508.125,170.836,-7380.54,0,0
17809.75,166.911,-6825.09,0,0
19111.375,186.254,-6387.72,0,0
20413.0,167.346,-5981.12,0,0
21714.625,155.784,-5645.75,0,0
23016.25,129.588,-5323.87,0,0
24317.875,121.623,-5030.7,0,0
25619.5,117.573,-4766.45,0,0
26921.1,120.489,-4521.66,0,0
28222.7,176.936,-4295.39,0,0
29524.4,140.371,-4184.64,0,0
30826,130.94,-3994.17,0,0
32127.6,117.27,-3845.68,0,0
33429.2,100.971,-3695.27,0,0
34730.9,91.3336,-3549.46,0,0
36032.5,87.5396,-3415.79,0,0
37334.1,85.5131,-3291.7,0,0
38635.7,85.8708,-3174.04,0,0
39937.4,99.7863,-3074.1,0,0
41239,86.6533,-2988.27,0,0
42540.6,79.148,-2891.97,0,0
43842.225,78.3315,-2802.91,0,0
45143.85,80.1427,-2725.38,0,0
46445.475,76.8812,-2651.82,0,0
47747.1,69.9756,-2576.1,0,0
49048.725,67.0365,-2505.82,0,0
50350.35,65.3537,-2438.53,0,0
51651.975,63.9587,-2374.8,0,0
52953.6,63.1035,-2314.27,0,0
54255.225,61.7072,-2257.65,0,0
55556.85,60.3357,-2202.79,0,0
56858.475,59.5079,-2150.23,0,0
58160.1,58.6598,-2100.07,0,0
59461.7,58.7228,-2052.53,0,0
60763.3,58.2767,-2008.49,0,0
62065,56.1581,-1964.91,0,0
63366.6,55.0345,-1922.27,0,0
64668.2,54.273,-1881.48,0,0
65969.8,54.3225,-1843.13,0,0
67271.5,52.5705,-1806.41,0,0
68573.1,51.3253,-1769.51,0,0
69874.7,50.7885,-1734.24,0,0
71176.3,50.6255,-1700.56,0,0
72478,49.5809,-1668.24,0,0
73779.6,48.7275,-1636.42,0,0
75081.2,48.1247,-1605.71,0,0
76382.825,47.6363,-1575.86,0,0
77684.45,47.4461,-1546.97,0,0
78986.075,47.1038,-1519.01,0,0
80287.7,46.8854,-1492,0,0
81589.325,46.4945,-1465.75,0,0
82890.95,46.307,-1439.95,0,0
84192.575,46.2587,-1414.94,0,0
85494.2,46.4677,-1391.03,0,0
86795.825,46.4004,-1367.69,0,0
88097.45,46.5262,-1344.9,0,0
89399.075,46.031,-1322.59,0,0
90700.7,45.8348,-1300.24,0,0
92002.3,46.1871,-1278.55,0,0
93303.9,46.91,-1256.55,0,0
94605.6,50.7488,-1237.58,0,0
95907.2,48.9389,-1220.26,0,0
97208.8,48.4473,-1199.93,0,0
98510.4,49.0797,-1180.78,0,0
99812.1,48.5626,-1162.27,0,0
101114,50.2202,-1142.76,0,0
102415,52.0675,-1124.53,0,0
103717,54.5824,-1107.91,0,0
105019,55.734,-1093.1,0,0
106320.175,55.1435,-1077.22,0,0
107621.8,55.7774,-1060.54,0,0
108923.425,56.98,-1044.06,0,0
110225.05,57.532,-1027.39,0,0
111526.675,60.7382,-1010.14,0,0
112828.3,65.2941,-993.619,0,0
114129.925,70.8299,-979.452,0,0
115431.55,77.8067,-966.727,0,0
116733.175,86.721,-958.336,0,0
118034.8,91.0155,-954.267,0,0
119336.425,93.5743,-953.415,0,0
120638.05,85.9886,-953.409,0,0
121939.675,74.3493,-943.025,0,0
123241,67.3742,-929.968,0,0
124543,62.1755,-915.882,0,0
125845,57.7319,-902.032,0,0
127146,53.7815,-886.861,0,0
128448,52.4252,-871.423,0,0
129749,50.9676,-857.177,0,0
131051,49.4714,-842.667,0,0
132353,48.4672,-827.388,0,0
133654,49.046,-811.507,0,0
134956,52.3231,-796.864,0,0
136258,56.4768,-784.653,0,0
137559,55.953,-777.189,0,0
138860.775,53.6918,-764.314,0,0
140162.4,53.2442,-750.111,0,0
141464.025,53.265,-736.617,0,0
142765.65,54.5536,-721.724,0,0
144067.275,57.4862,-708.363,0,0
145368.9,59.034,-696.441,0,0
146670.525,60.4062,-683.259,0,0
147972.15,61.6544,-671.007,0,0
149273.775,61.8069,-658.008,0,0
150575.4,61.5653,-642.693,0,0
151877.025,63.0292,-625.088,0,0
153178.65,66.8268,-607.064,0,0
154480,72.2352,-588.774,0,0
155782,80.1441,-570.026,0,0
157084,90.9018,-552.564,0,0
158385,104.245,-538.415,0,0
159687,114.094,-529.243,0,0
160988,117.675,-515.521,0,0
162290,124.537,-492.444,0,0
163592,140.089,-467.27,0,0
164893,162.439,-445.355,0,0
166195,188.999,-419.44,0,0
167497,233.053,-396.036,0,0
168798,294.185,-389.319,0,0
170100,357.444,-411.207,0,0
171401.375,411.603,-459.643,0,0
172703.0,441.57,-532.062,0,0
174004.625,420.529,-612.62,0,0
175306.25,361.199,-641.392,0,0
176607.875,331.663,-631.331,0,0
177909.5,332.266,-626.361,0,0
179211.125,339.52,-661.168,0,0
180512.75,308.479,-687.097,0,0
181814.375,268.819,-700.768,0,0
183116.0,221.798,-698.225,0,0
184417.625,190.3,-673.202,0,0
185719.25,169.948,-650.785,0,0
187021,154.823,-623.096,0,0
188322,150.745,-598.958,0,0
189624,142.62,-581.498,0,0
190926,135.553,-557.442,0,0
192227,135.04,-532.42,0,0
193529,136.929,-506.579,0,0
194831,144.011,-482.666,0,0
196132,154.47,-461.791,0,0
197434,166.406,-443.399,0,0
198735,175.918,-428.129,0,0
200037,184.987,-408.701,0,0
201339,198.58,-386.53,0,0
202640.35,217.662,-363.089,0,0
203941.975,243.708,-341.852,0,0
205243.6,276.729,-322.946,0,0
206545.225,318.699,-316.908,0,0
207846.85,350.042,-317.984,0,0
209148.475,386.967,-310.641,0,0
210450.1,445.473,-315.096,0,0
211751.725,499.703,-357.475,0,0
213053.35,523.352,-407.734,0,0
214354.975,537.206,-453.115,0,0
215656.6,539.18,-499.941,0,0
216958.225,536.272,-544.938,0,0
218259.85,515.715,-590.32,0,0
219561,473.476,-620.876,0,0
220863,435.063,-621.326,0,0
222165,414.502,-610.854,0,0
223466,407.312,-603.3,0,0
224768,402.292,-599.545,0,0
226070,403.381,-592.004,0,0
227371,413.835,-593.818,0,0
228673,426.082,-605.063,0,0
229974,430.015,-626.429,0,0
231276,428.695,-652.457,0,0
232578,418.531,-677.953,0,0
233879,396.577,-710.106,0,0
235180.95,354.109,-724.443,0,0
236482.575,317.141,-719.198,0,0
237784.2,287.194,-706.803,0,0
239085.825,269.916,-683.935,0,0
240387.45,267.987,-670.169,0,0
241689.075,257.159,-668.719,0,0
242990.7,239.202,-656.178,0,0
244292.325,232.776,-635.196,0,0
245593.95,237.78,-624.328,0,0
246895.575,233.997,-619.459,0,0
248197.2,228.752,-609.145,0,0
249498.825,226.833,-595.505,0,0
250800,230.984,-581.523,0,0
252102,240.206,-570.692,0,0
253404,254.992,-566.573,0,0
254705,266.435,-573.173,0,0
256007,269.69,-582.93,0,0
257309,265.729,-590.673,0,0
258610,259.826,-591.801,0,0
259912,256.947,-592.711,0,0
261213,251.454,-591.313,0,0
262515,249.847,-585.715,0,0
263817,255.468,-583.09,0,0
265118,259.381,-587.925,0,0
266420,259.936,-593.125,0,0
267721.55,258.453,-601.029,0,0
269023.175,250.558,-606.39,0,0
270324.8,244.389,-604.381,0,0
271626.425,248.46,-602.679,0,0
272928.05,257.87,-617.827,0,0
274229.675,246.719,-644.019,0,0
275531.3,217.054,-660.941,0,0
276832.925,180.621,-657.576,0,0
278134.55,153.935,-637.819,0,0
279436.175,141.379,-613.976,0,0
280737.8,137.46,-593.924,0,0
282039.425,136.52,-580.326,0,0
283341,133.36,-566.223,0,0
284643,134.909,-549.231,0,0
285944,142.388,-536.729,0,0
287246,149.473,-530.123,0,0
288548,152.361,-526.276,0,0
289849,153.037,-518.962,0,0
291151,156.68,-508.974,0,0
292452,163.355,-501.053,0,0
293754,171.406,-494.244,0,0
295056,180.186,-488.545,0,0
296357,191.427,-484.188,0,0
297659,204.865,-481.764,0,0
298960.525,219.856,-483.632,0,0
300262.15,236.72,-488.898,0,0
301563.775,255.525,-502.003,0,0
302865.4,270.132,-528.617,0,0
304167.025,266.853,-561.035,0,0
305468.65,251.811,-585.682,0,0
306770.275,230.1,-602.741,0,0
308071.9,206.627,-610.321,0,0
309373.525,183.888,-610.611,0,0
310675.15,165.878,-604.382,0,0
311976.775,152.831,-597.665,0,0
313278.4,141.2,-590.999,0,0
314580,130.654,-582.497,0,0
315882,123.295,-572.349,0,0
317183,119.334,-563.369,0,0
318485,116.36,-555.809,0,0
319787,114.35,-549.272,0,0
321088,112.846,-543.949,0,0
322390,111.245,-539.391,0,0
323691,109.567,-535.474,0,0
324993,107.647,-531.61,0,0
326295,106.527,-527.707,0,0
327596,105.72,-525.525,0,0
328898,103.391,-524.164,0,0
330200,100.301,-522.514,0,0
331501.125,96.5102,-520.82,0,0
332802.75,91.5676,-518.744,0,0
334104.375,86.1803,-515.139,0,0
335406.0,81.022,-510.444,0,0
336707.625,76.3175,-504.965,0,0
338009.25,72.358,-498.592,0,0
339310.875,69.3795,-492.004,0,0
340612.5,66.8762,-485.388,0,0
341914.125,65.0203,-478.4,0,0
343215.75,64.2566,-471.331,0,0
344517.375,64.6709,-464.678,0,0
345819.0,65.8645,-459.303,0,0
347121,66.4512,-455.482,0,0
348422,65.5939,-451.638,0,0
349724,64.4188,-446.565,0,0
351025,63.7075,-440.91,0,0
352327,64.0426,-434.328,0,0
353629,66.0114,-428.464,0,0
354930,68.5337,-423.909,0,0
356232,70.9186,-420.973,0,0
357534,71.5446,-419.032,0,0
358835,70.4023,-415.784,0,0
360137,69.6918,-410.571,0,0
361438,70.3758,-404.636,0,0
362740.1,72.5292,-398.951,0,0
364041.725,75.3816,-393.965,0,0
365343.35,79.0888,-389.743,0,0
366644.975,82.7698,-386.961,0,0
367946.6,86.0022,-384.544,0,0
369248.225,89.3157,-382.923,0,0
370549.85,91.8935,-382.589,0,0
371851.475,92.1337,-382.261,0,0
373153.1,91.9479,-379.647,0,0
374454.725,93.1656,-376.307,0,0
375756.35,95.1026,-373.681,0,0
377057.975,96.6115,-371.7,0,0
378359.6,97.5439,-368.97,0,0
379661,99.3439,-365.655,0,0
380963,101.447,-362.833,0,0
382264,103.848,-359.941,0,0
383566,106.64,-357.4,0,0
384868,109.371,-355.027,0,0
386169,112.193,-352.931,0,0
387471,114.656,-350.679,0,0
388773,117.52,-347.219,0,0
390074,122.514,-344.101,0,0
391376,127.904,-342.383,0,0
392677,133.365,-341.759,0,0
393979,137.984,-341.637,0,0
395280.7,142.821,-340.26,0,0
396582.325,149.773,-338.768,0,0
397883.95,159.645,-338.756,0,0
399185.575,172.043,-343.235,0,0
400006.6,179.639,-349.973,0,0