File: Accelerated corrosion test data/2025-10-21_18-00-04/sample_8.csv
Frequency (Hz),Impedance (ohms),Phase (Radians),Temperature (C),Humidity (%)
10000.0,303.751,-10985.8,0,0
11301.625,269.435,-9735.62,0,0
12603.25,248.424,-8742.58,0,0
13904.875,220.764,-7940.58,0,0
15206.5,200.704,-7265.9,0,0
16508.125,185.032,-6698.26,0,0
17809.75,171.65,-6211.19,0,0
19111.375,164.509,-5787.83,0,0
20413.0,158.484,-5426.16,0,0
21714.625,146.761,-5105.71,0,0
23016.25,141.646,-4822.4,0,0
24317.875,129.815,-4565.16,0,0
25619.5,123.486,-4331.98,0,0
26921.1,118.606,-4120.72,0,0
28222.7,116.157,-3930.57,0,0
29524.4,112.332,-3757.83,0,0
30826,107.722,-3599.91,0,0
32127.6,104.31,-3451.7,0,0
33429.2,104.269,-3314.41,0,0
34730.9,105.723,-3190.15,0,0
36032.5,108.773,-3079.84,0,0
37334.1,104.948,-2980.54,0,0
38635.7,94.3888,-2883.35,0,0
39937.4,86.8469,-2785.98,0,0
41239,84.2861,-2695.62,0,0
42540.6,81.0692,-2610.43,0,0
43842.225,80.2794,-2532.99,0,0
45143.85,76.2298,-2458.25,0,0
46445.475,73.515,-2387.06,0,0
47747.1,71.5068,-2319.66,0,0
49048.725,69.4529,-2255.96,0,0
50350.35,67.6795,-2194.97,0,0
51651.975,66.6988,-2136.78,0,0
52953.6,66.3303,-2081.95,0,0
54255.225,65.25,-2031.92,0,0
55556.85,62.3016,-1982.57,0,0
56858.475,60.2743,-1933.56,0,0
58160.1,59.3888,-1887.16,0,0
59461.7,58.4923,-1843.3,0,0
60763.3,57.4584,-1800.32,0,0
62065,56.8578,-1759.55,0,0
63366.6,57.6001,-1720.32,0,0
64668.2,57.1419,-1683.98,0,0
65969.8,56.5733,-1648.69,0,0
67271.5,54.8498,-1614.11,0,0
68573.1,53.7821,-1580.05,0,0
69874.7,53.8082,-1546.95,0,0
71176.3,53.7133,-1515.76,0,0
72478,53.4412,-1486.18,0,0
73779.6,52.5837,-1456.72,0,0
75081.2,51.837,-1428,0,0
76382.825,51.5578,-1400.1,0,0
77684.45,51.0704,-1373.35,0,0
78986.075,50.4485,-1346.94,0,0
80287.7,49.8702,-1320.73,0,0
81589.325,50.0904,-1294.88,0,0
82890.95,50.9747,-1270,0,0
84192.575,52.4271,-1246.82,0,0
85494.2,51.337,-1224.39,0,0
86795.825,51.6672,-1200.81,0,0
88097.45,52.257,-1178.2,0,0
89399.075,53.0397,-1155.4,0,0
90700.7,55.7818,-1132.43,0,0
92002.3,59.097,-1113.29,0,0
93303.9,61.144,-1093.03,0,0
94605.6,63.5353,-1074.76,0,0
95907.2,65.0978,-1055.45,0,0
97208.8,68.5802,-1036.03,0,0
98510.4,73.7565,-1017.92,0,0
99812.1,78.4494,-1002.87,0,0
101114,83.7662,-989.209,0,0
102415,86.4314,-978.359,0,0
103717,86.9581,-966.565,0,0
105019,85.5274,-954.709,0,0
106320.175,85.0223,-940.15,0,0
107621.8,84.8484,-926.821,0,0
108923.425,84.9459,-911.67,0,0
110225.05,86.7315,-898.637,0,0
111526.675,87.1989,-886.03,0,0
112828.3,88.1625,-874.06,0,0
114129.925,87.9565,-862.358,0,0
115431.55,87.6764,-850.578,0,0
116733.175,86.1505,-838.267,0,0
118034.8,85.9812,-825.528,0,0
119336.425,85.5362,-813.46,0,0
120638.05,84.4523,-800.888,0,0
121939.675,84.2932,-788.499,0,0
123241,83.4609,-776.436,0,0
124543,82.3914,-763.878,0,0
125845,81.0435,-750.866,0,0
127146,80.2931,-737.07,0,0
128448,80.0148,-723.055,0,0
129749,79.9613,-709.248,0,0
131051,81.2037,-694.682,0,0
132353,82.4098,-681.707,0,0
133654,82.961,-668.377,0,0
134956,84.3531,-654.157,0,0
136258,86.5027,-641.332,0,0
137559,86.3529,-628.562,0,0
138860.775,86.491,-612.76,0,0
140162.4,88.7062,-597.167,0,0
141464.025,91.0359,-581.282,0,0
142765.65,93.8697,-564.077,0,0
144067.275,98.6463,-546.6,0,0
145368.9,105.35,-528.166,0,0
146670.525,114.413,-510.365,0,0
147972.15,123.568,-494.905,0,0
149273.775,134.793,-475.632,0,0
150575.4,154.324,-456.348,0,0
151877.025,180.749,-449.049,0,0
153178.65,199.275,-451.703,0,0
154480,209.83,-453.894,0,0
155782,223.563,-456.271,0,0
157084,220.85,-465.83,0,0
158385,220.82,-456.207,0,0
159687,227.718,-455.522,0,0
160988,219.579,-451.228,0,0
162290,226.393,-433.803,0,0
163592,237.469,-431.55,0,0
164893,242.373,-430.069,0,0
166195,240.945,-432.711,0,0
167497,229.572,-427.577,0,0
168798,220.044,-413.035,0,0
170100,215.253,-390.207,0,0
171401.375,215.759,-365.24,0,0
172703.0,224.246,-337.51,0,0
174004.625,236.9,-314.139,0,0
175306.25,247.577,-291.252,0,0
176607.875,263.982,-262.434,0,0
177909.5,283.014,-232.8,0,0
179211.125,315.733,-199.855,0,0
180512.75,358.161,-174.862,0,0
181814.375,406.444,-154.978,0,0
183116.0,464.213,-155.098,0,0
184417.625,503.666,-160.718,0,0
185719.25,555.22,-166.251,0,0
187021,600.869,-183.531,0,0
188322,640.862,-203.714,0,0
189624,674.849,-225.631,0,0
190926,713.396,-240.066,0,0
192227,754.07,-268.008,0,0
193529,800.476,-281.684,0,0
194831,876.14,-320.206,0,0
196132,946.654,-399.914,0,0
197434,987.057,-516.082,0,0
198735,974.55,-647.442,0,0
200037,908.23,-756.192,0,0
201339,830.572,-815.355,0,0
202640.35,740.703,-859.144,0,0
203941.975,663.372,-852.336,0,0
205243.6,604.689,-840.013,0,0
206545.225,563.136,-806.784,0,0
207846.85,551.781,-779.544,0,0
209148.475,548.151,-766.744,0,0
210450.1,547.739,-755.68,0,0
211751.725,556.943,-754.975,0,0
213053.35,564.383,-768.495,0,0
214354.975,563.2,-789.151,0,0
215656.6,555.239,-812.129,0,0
216958.225,538.816,-834.658,0,0
218259.85,517.164,-855.071,0,0
219561,487.752,-871.028,0,0
220863,454.566,-877.407,0,0
222165,425.469,-872.689,0,0
223466,405.431,-863.716,0,0
224768,392.753,-858.636,0,0
226070,382.51,-860.242,0,0
227371,366.091,-865.768,0,0
228673,346.836,-866.202,0,0
229974,329.051,-869.573,0,0
231276,304.476,-872.028,0,0
232578,277.323,-868.614,0,0
233879,248.77,-858.889,0,0
235180.95,223.688,-840.818,0,0
236482.575,206.293,-819.244,0,0
237784.2,194.815,-798.057,0,0
239085.825,188.997,-776.777,0,0
240387.45,188.761,-761.305,0,0
241689.075,187.679,-752.43,0,0
242990.7,181.599,-743.568,0,0
244292.325,175.606,-732.343,0,0
245593.95,171.393,-719.787,0,0
246895.575,170.848,-708.605,0,0
248197.2,168.989,-699.6,0,0
249498.825,167.117,-689.984,0,0
250800,166.724,-679.937,0,0
252102,168.927,-671.154,0,0
253404,171.809,-666.566,0,0
254705,170.509,-664.477,0,0
256007,165.461,-659.941,0,0
257309,160.567,-651.225,0,0
258610,159.089,-639.61,0,0
259912,162.372,-628.936,0,0
261213,166.452,-621.844,0,0
262515,169.585,-616.197,0,0
263817,172.366,-608.841,0,0
265118,176.872,-600.14,0,0
266420,186.602,-590.166,0,0
267721.55,204.045,-585.062,0,0
269023.175,223.452,-590.316,0,0
270324.8,240.779,-603.963,0,0
271626.425,250.811,-628.141,0,0
272928.05,249.269,-657.072,0,0
274229.675,230.241,-684.113,0,0
275531.3,202.075,-696.328,0,0
276832.925,175.666,-696.232,0,0
278134.55,153.895,-689.058,0,0
279436.175,137.003,-676.818,0,0
280737.8,127.556,-662.463,0,0
282039.425,123.579,-650.836,0,0
283341,121.064,-642.738,0,0
284643,118.657,-634.816,0,0
285944,118.765,-627.594,0,0
287246,122.095,-623.858,0,0
288548,123.335,-627.778,0,0
289849,116.02,-632.81,0,0
291151,105.083,-631.95,0,0
292452,94.8033,-627.926,0,0
293754,85.4515,-621.25,0,0
295056,77.8337,-612.527,0,0
296357,72.7665,-603.39,0,0
297659,68.8308,-594.744,0,0
298960.525,65.7076,-585.936,0,0
300262.15,63.8341,-576.876,0,0
301563.775,63.5207,-568.113,0,0
302865.4,64.6478,-560.472,0,0
304167.025,66.4134,-554.142,0,0
305468.65,68.4931,-549.144,0,0
306770.275,70.2391,-545.525,0,0
308071.9,71.7226,-542.613,0,0
309373.525,71.9755,-541.237,0,0
310675.15,70.8797,-538.858,0,0
311976.775,70.1145,-536.302,0,0
313278.4,68.7691,-534.004,0,0
314580,66.9892,-531.302,0,0
315882,65.0815,-528.163,0,0
317183,63.6425,-524.38,0,0
318485,62.3881,-520.839,0,0
319787,61.6877,-517.086,0,0
321088,61.3404,-514.14,0,0
322390,60.6751,-511.724,0,0
323691,59.2692,-509.763,0,0
324993,57.1936,-507.252,0,0
326295,54.8705,-504.033,0,0
327596,52.9821,-500.438,0,0
328898,51.2859,-496.892,0,0
330200,49.5075,-493.073,0,0
331501.125,47.949,-488.929,0,0
332802.75,46.71,-484.513,0,0
334104.375,46.1103,-479.895,0,0
335406.0,46.3111,-475.727,0,0
336707.625,46.5866,-472.492,0,0
338009.25,46.455,-469.648,0,0
339310.875,45.661,-466.872,0,0
340612.5,44.7309,-463.836,0,0
341914.125,43.5589,-460.459,0,0
343215.75,42.5448,-456.649,0,0
344517.375,41.8604,-452.582,0,0
345819.0,41.5531,-448.341,0,0
347121,41.702,-444.263,0,0
348422,42.1182,-440.333,0,0
349724,42.7147,-436.489,0,0
351025,43.8108,-432.847,0,0
352327,45.0182,-429.78,0,0
353629,46.106,-427.098,0,0
354930,47.1377,-424.614,0,0
356232,48.0489,-422.354,0,0
357534,48.6861,-420.273,0,0
358835,49.2443,-418.196,0,0
360137,49.7703,-416.142,0,0
361438,50.2816,-414.079,0,0
362740.1,50.7185,-412.25,0,0
364041.725,50.9776,-410.433,0,0
365343.35,51.1255,-408.643,0,0
366644.975,51.1981,-406.653,0,0
367946.6,51.3166,-404.654,0,0
369248.225,51.5174,-402.404,0,0
370549.85,52.416,-400.318,0,0
371851.475,53.3175,-399.128,0,0
373153.1,53.6592,-398.469,0,0
374454.725,53.0826,-397.857,0,0
375756.35,51.9214,-396.498,0,0
377057.975,51.29,-394.472,0,0
378359.6,50.7603,-392.966,0,0
379661,49.5586,-390.885,0,0
380963,49.4115,-387.957,0,0
382264,50.1516,-386.367,0,0
383566,49.7446,-385.665,0,0
384868,48.3299,-384.49,0,0
386169,46.6598,-382.513,0,0
387471,45.153,-379.758,0,0
388773,44.1132,-376.546,0,0
390074,43.7665,-373.352,0,0
391376,43.6375,-370.395,0,0
392677,43.5265,-367.67,0,0
393979,43.3815,-364.841,0,0
395280.7,43.3803,-361.825,0,0
396582.325,43.7344,-358.932,0,0
397883.95,44.1354,-356.266,0,0
399185.575,44.5694,-353.636,0,0
400006.6,44.7825,-352.013,0,0