File: Accelerated corrosion test data/2025-10-21_18-00-04/sample_1.csv
Frequency (Hz),Impedance (ohms),Phase (Radians),Temperature (C),Humidity (%)
10000.0,240.808,-12223.2,0,0
11301.625,214.531,-10826.7,0,0
12603.25,194.881,-9724.79,0,0
13904.875,183.002,-8799.12,0,0
15206.5,190.529,-8065.65,0,0
16508.125,154.296,-7441.63,0,0
17809.75,146.481,-6902.55,0,0
19111.375,135.772,-6434.46,0,0
20413.0,156.55,-5989.77,0,0
21714.625,136.548,-5673.16,0,0
23016.25,122.225,-5371.08,0,0
24317.875,112.996,-5078.1,0,0
25619.5,104.298,-4812.98,0,0
26921.1,113.6,-4562.32,0,0
28222.7,110.171,-4359.82,0,0
29524.4,107.476,-4194.82,0,0
30826,100.739,-4005.74,0,0
32127.6,97.4864,-3848.75,0,0
33429.2,89.0715,-3704.41,0,0
34730.9,81.8143,-3562.1,0,0
36032.5,77.8673,-3430.8,0,0
37334.1,75.0956,-3308.6,0,0
38635.7,72.7093,-3194.49,0,0
39937.4,71.0132,-3087.75,0,0
41239,72.2171,-2988.46,0,0
42540.6,70.7153,-2896.3,0,0
43842.225,67.7491,-2809.5,0,0
45143.85,68.2346,-2727.86,0,0
46445.475,65.2308,-2650.92,0,0
47747.1,63.9979,-2577.34,0,0
49048.725,61.5218,-2507,0,0
50350.35,59.3332,-2440.39,0,0
51651.975,58.6704,-2376.78,0,0
52953.6,57.4554,-2315.75,0,0
54255.225,56.5415,-2258.69,0,0
55556.85,55.5303,-2203.09,0,0
56858.475,54.6964,-2150.01,0,0
58160.1,54.4255,-2099.2,0,0
59461.7,54.1758,-2051.23,0,0
60763.3,54.3119,-2005.38,0,0
62065,52.9821,-1961.25,0,0
63366.6,52.2973,-1917.75,0,0
64668.2,52.8103,-1875.43,0,0
65969.8,54.9424,-1837.65,0,0
67271.5,53.567,-1801.16,0,0
68573.1,52.8858,-1765.04,0,0
69874.7,51.978,-1731.31,0,0
71176.3,49.9867,-1696.56,0,0
72478,48.2005,-1662.99,0,0
73779.6,47.9164,-1629.47,0,0
75081.2,48.272,-1597.17,0,0
76382.825,48.8587,-1566.08,0,0
77684.45,49.989,-1536.65,0,0
78986.075,51.6072,-1509.12,0,0
80287.7,50.8156,-1482.6,0,0
81589.325,50.1527,-1454.81,0,0
82890.95,50.8,-1427.96,0,0
84192.575,52.3447,-1401.8,0,0
85494.2,54.3268,-1376.81,0,0
86795.825,55.3885,-1353.69,0,0
88097.45,55.8072,-1330.29,0,0
89399.075,57.6429,-1305.64,0,0
90700.7,60.8292,-1282.53,0,0
92002.3,66.9761,-1261.23,0,0
93303.9,74.6225,-1243.3,0,0
94605.6,73.2594,-1236.89,0,0
95907.2,67.0158,-1217.93,0,0
97208.8,65.1909,-1197.54,0,0
98510.4,64.3405,-1177.34,0,0
99812.1,63.3349,-1157.9,0,0
101114,62.9271,-1137.68,0,0
102415,63.4125,-1115.81,0,0
103717,68.3134,-1094.71,0,0
105019,74.909,-1077.64,0,0
106320.175,80.4621,-1061.31,0,0
107621.8,86.8674,-1048.1,0,0
108923.425,91.2491,-1036.89,0,0
110225.05,93.8797,-1028.05,0,0
111526.675,94.0414,-1015.81,0,0
112828.3,97.6548,-1005.96,0,0
114129.925,96.6007,-998.903,0,0
115431.55,93.3518,-989.775,0,0
116733.175,88.7785,-978.332,0,0
118034.8,83.9486,-964.547,0,0
119336.425,81.7697,-949.045,0,0
120638.05,81.7502,-934.608,0,0
121939.675,80.1931,-922.014,0,0
123241,78.7314,-906.993,0,0
124543,78.6981,-892.121,0,0
125845,79.2875,-877.422,0,0
127146,80.249,-862.971,0,0
128448,82.0858,-848.07,0,0
129749,84.926,-834.013,0,0
131051,89.4782,-820.725,0,0
132353,93.7914,-809.725,0,0
133654,96.7834,-798.994,0,0
134956,100.129,-788.043,0,0
136258,103.422,-777.578,0,0
137559,108.682,-768.114,0,0
138860.775,111.14,-762.489,0,0
140162.4,110.263,-754.381,0,0
141464.025,109.939,-744.503,0,0
142765.65,110.229,-733.564,0,0
144067.275,111.752,-721.905,0,0
145368.9,114.346,-710.657,0,0
146670.525,117.656,-700.872,0,0
147972.15,119.622,-692.346,0,0
149273.775,121.068,-682.403,0,0
150575.4,122.308,-673.682,0,0
151877.025,121.06,-662.705,0,0
153178.65,120.811,-647.771,0,0
154480,124.306,-631.639,0,0
155782,130.839,-614.701,0,0
157084,142.927,-599.051,0,0
158385,154.8,-590.235,0,0
159687,163.354,-578.309,0,0
160988,181.502,-566.008,0,0
162290,201.094,-565.772,0,0
163592,211.642,-567.057,0,0
164893,225.663,-566.395,0,0
166195,239.559,-572.504,0,0
167497,247.892,-583.138,0,0
168798,248.335,-596.408,0,0
170100,240.193,-604.919,0,0
171401.375,231.73,-603.61,0,0
172703.0,227.908,-599.203,0,0
174004.625,225.157,-596.366,0,0
175306.25,223.607,-592.44,0,0
176607.875,221.825,-590.656,0,0
177909.5,219.311,-586.718,0,0
179211.125,215.674,-585.878,0,0
180512.75,207.23,-582.764,0,0
181814.375,199.428,-574.039,0,0
183116.0,192.638,-562.65,0,0
184417.625,188.044,-548.927,0,0
185719.25,186.406,-533.699,0,0
187021,186.717,-518.819,0,0
188322,190.309,-503.271,0,0
189624,193.756,-489.819,0,0
190926,196.565,-474.566,0,0
192227,201.979,-457.427,0,0
193529,210.533,-439.595,0,0
194831,221.731,-422.996,0,0
196132,235.115,-406.183,0,0
197434,251.081,-390.816,0,0
198735,268.192,-376.227,0,0
200037,287.146,-360.401,0,0
201339,310.717,-344.517,0,0
202640.35,342.243,-326.956,0,0
203941.975,384.973,-316.443,0,0
205243.6,436.102,-321.751,0,0
206545.225,482.38,-345.933,0,0
207846.85,514.453,-381.288,0,0
209148.475,534.04,-421.786,0,0
210450.1,534.222,-462.789,0,0
211751.725,520.969,-482.772,0,0
213053.35,520.093,-484.716,0,0
214354.975,532.617,-494.106,0,0
215656.6,543.235,-509.044,0,0
216958.225,553.078,-525.539,0,0
218259.85,561.823,-541.615,0,0
219561,575.552,-556.382,0,0
220863,594.434,-579.814,0,0
222165,611.775,-614.969,0,0
223466,618.814,-661.112,0,0
224768,611.266,-709.374,0,0
226070,593.914,-754.825,0,0
227371,563.749,-797.133,0,0
228673,524.204,-830.576,0,0
229974,478.337,-849.568,0,0
231276,435.641,-855.19,0,0
232578,399.184,-852.645,0,0
233879,370.674,-845.916,0,0
235180.95,348.552,-841.917,0,0
236482.575,324.466,-838.927,0,0
237784.2,300.695,-833.731,0,0
239085.825,277.572,-825.221,0,0
240387.45,257.778,-814.374,0,0
241689.075,240.752,-803.003,0,0
242990.7,225.695,-790.733,0,0
244292.325,213.772,-779.25,0,0
245593.95,201.81,-769.272,0,0
246895.575,189.688,-758.204,0,0
248197.2,179.212,-745.629,0,0
249498.825,170.345,-732.953,0,0
250800,163.293,-720.358,0,0
252102,157.253,-708.656,0,0
253404,151.339,-696.383,0,0
254705,147.511,-683.339,0,0
256007,145.433,-671.753,0,0
257309,143.471,-660.467,0,0
258610,142.607,-648.744,0,0
259912,144.212,-637.026,0,0
261213,148.044,-627.434,0,0
262515,152.489,-620.003,0,0
263817,157.288,-614.139,0,0
265118,163.31,-609.941,0,0
266420,170.145,-609.787,0,0
267721.55,174.422,-615.254,0,0
269023.175,171.046,-622.907,0,0
270324.8,161.401,-626.172,0,0
271626.425,150.063,-622.632,0,0
272928.05,142.517,-614.041,0,0
274229.675,139.124,-605.334,0,0
275531.3,137.593,-597.07,0,0
276832.925,138.313,-589.667,0,0
278134.55,140.167,-584.76,0,0
279436.175,140.816,-581.839,0,0
280737.8,140.276,-578.275,0,0
282039.425,140.558,-575.537,0,0
283341,138.839,-573.091,0,0
284643,137.645,-569.631,0,0
285944,135.806,-567.076,0,0
287246,131.904,-562.735,0,0
288548,129.887,-555.044,0,0
289849,132.056,-547.622,0,0
291151,135.096,-544.348,0,0
292452,135.71,-541.969,0,0
293754,135.005,-538.279,0,0
295056,134.954,-532.978,0,0
296357,136.695,-526.732,0,0
297659,140.64,-521.219,0,0
298960.525,145.847,-517.469,0,0
300262.15,151.099,-515.193,0,0
301563.775,157.19,-513.839,0,0
302865.4,163.403,-515.205,0,0
304167.025,168.161,-517.703,0,0
305468.65,172.26,-521.397,0,0
306770.275,176.013,-525.983,0,0
308071.9,177.911,-533.308,0,0
309373.525,176.603,-540.145,0,0
310675.15,174.213,-546.438,0,0
311976.775,169.627,-552.467,0,0
313278.4,163.622,-556.599,0,0
314580,157.885,-559.635,0,0
315882,151.48,-562.499,0,0
317183,143.796,-564.292,0,0
318485,135.472,-564.595,0,0
319787,127.104,-563.034,0,0
321088,119.185,-560.02,0,0
322390,111.982,-555.038,0,0
323691,106.991,-548.83,0,0
324993,104.28,-542.991,0,0
326295,102.813,-538.321,0,0
327596,101.803,-535.113,0,0
328898,100.223,-533.005,0,0
330200,98.0663,-531.279,0,0
331501.125,95.3132,-529.643,0,0
332802.75,91.9635,-527.787,0,0
334104.375,88.0606,-525.482,0,0
335406.0,83.9829,-522.41,0,0
336707.625,80.3878,-518.74,0,0
338009.25,77.2525,-514.776,0,0
339310.875,74.4059,-510.622,0,0
340612.5,72.0713,-506.466,0,0
341914.125,69.8585,-502.54,0,0
343215.75,67.665,-498.524,0,0
344517.375,65.623,-494.578,0,0
345819.0,63.4241,-490.469,0,0
347121,61.373,-485.953,0,0
348422,59.9488,-481.174,0,0
349724,58.9437,-476.567,0,0
351025,58.1552,-472.207,0,0
352327,57.6425,-467.868,0,0
353629,57.2125,-463.869,0,0
354930,56.8015,-459.886,0,0
356232,56.557,-455.977,0,0
357534,56.3101,-452.164,0,0
358835,56.123,-448.251,0,0
360137,56.2132,-444.355,0,0
361438,56.3972,-440.664,0,0
362740.1,56.5641,-437.087,0,0
364041.725,56.8745,-433.314,0,0
365343.35,57.4649,-429.618,0,0
366644.975,58.0347,-426.31,0,0
367946.6,58.2237,-422.529,0,0
369248.225,59.1007,-418.241,0,0
370549.85,60.8994,-413.974,0,0
371851.475,63.557,-410.118,0,0
373153.1,66.8017,-407.397,0,0
374454.725,69.9318,-405.625,0,0
375756.35,72.7233,-404.564,0,0
377057.975,75.1756,-403.972,0,0
378359.6,77.2217,-403.964,0,0
379661,78.503,-403.976,0,0
380963,80.077,-403.474,0,0
382264,82.1716,-404.319,0,0
383566,83.0738,-406.411,0,0
384868,82.1022,-408.624,0,0
386169,80.081,-409.858,0,0
387471,77.5374,-410.212,0,0
388773,74.7137,-409.372,0,0
390074,72.6437,-407.818,0,0
391376,70.9966,-406.453,0,0
392677,69.1013,-405.323,0,0
393979,66.7171,-403.72,0,0
395280.7,64.2767,-401.495,0,0
396582.325,61.9837,-398.602,0,0
397883.95,60.2023,-395.057,0,0
399185.575,59.1849,-391.452,0,0
400006.6,58.8236,-389.208,0,0