File: Accelerated corrosion test data/2025-10-21_18-00-04/sample_4.csv
Frequency (Hz),Impedance (ohms),Phase (Radians),Temperature (C),Humidity (%)
10000.0,262.887,-11936.1,0,0
11301.625,233.569,-10574.1,0,0
12603.25,213.364,-9486.13,0,0
13904.875,192.522,-8600.31,0,0
15206.5,180.047,-7870.9,0,0
16508.125,191.879,-7259.99,0,0
17809.75,154.825,-6745.13,0,0
19111.375,144.655,-6285.44,0,0
20413.0,140.15,-5882.37,0,0
21714.625,147.579,-5536.74,0,0
23016.25,124.392,-5234.38,0,0
24317.875,115.392,-4948.78,0,0
25619.5,111.203,-4693.89,0,0
26921.1,105.954,-4463.09,0,0
28222.7,120.045,-4259.89,0,0
29524.4,112.961,-4080.5,0,0
30826,98.0634,-3906.31,0,0
32127.6,99.8399,-3744.86,0,0
33429.2,89.0157,-3603.27,0,0
34730.9,84.1938,-3464.42,0,0
36032.5,81.111,-3336.16,0,0
37334.1,78.9264,-3216.52,0,0
38635.7,76.4021,-3104.1,0,0
39937.4,76.6555,-2997.62,0,0
41239,79.9653,-2903.07,0,0
42540.6,78.3575,-2814.49,0,0
43842.225,73.2226,-2730.73,0,0
45143.85,70.738,-2649.2,0,0
46445.475,70.2352,-2571.73,0,0
47747.1,69.7145,-2501.5,0,0
49048.725,65.9258,-2431.89,0,0
50350.35,63.7857,-2364.35,0,0
51651.975,63.1061,-2299.42,0,0
52953.6,64.7871,-2236.06,0,0
54255.225,72.9245,-2179.24,0,0
55556.85,71.4037,-2135.96,0,0
56858.475,65.0173,-2081.76,0,0
58160.1,66.055,-2029.22,0,0
59461.7,70.1606,-1978.53,0,0
60763.3,79.8922,-1940.11,0,0
62065,69.2197,-1907.36,0,0
63366.6,63.3139,-1861.17,0,0
64668.2,63.4501,-1817.48,0,0
65969.8,65.7077,-1776.35,0,0
67271.5,69.7113,-1739.73,0,0
68573.1,73.5497,-1710.52,0,0
69874.7,66.2332,-1680.98,0,0
71176.3,64.516,-1646.85,0,0
72478,58.6846,-1614.72,0,0
73779.6,57.102,-1578.52,0,0
75081.2,59.202,-1545.07,0,0
76382.825,61.6165,-1516.04,0,0
77684.45,64.8972,-1488.16,0,0
78986.075,63.7936,-1465.6,0,0
80287.7,60.8587,-1438.85,0,0
81589.325,60.4795,-1412.84,0,0
82890.95,59.1678,-1387.94,0,0
84192.575,57.8861,-1363.09,0,0
85494.2,56.8297,-1338.77,0,0
86795.825,55.9889,-1314.96,0,0
88097.45,54.4942,-1291.98,0,0
89399.075,53.2332,-1267.72,0,0
90700.7,53.1464,-1244.47,0,0
92002.3,53.5235,-1221.32,0,0
93303.9,54.8868,-1200.22,0,0
94605.6,53.4423,-1180.38,0,0
95907.2,52.6013,-1157.84,0,0
97208.8,53.2048,-1136.07,0,0
98510.4,54.4571,-1114.49,0,0
99812.1,56.7982,-1093.51,0,0
101114,60.6414,-1075.03,0,0
102415,59.7669,-1059.93,0,0
103717,57.3551,-1037.25,0,0
105019,60.6854,-1013.64,0,0
106320.175,66.9792,-992.779,0,0
107621.8,73.6073,-974.597,0,0
108923.425,81.8245,-957.283,0,0
110225.05,90.3811,-944.006,0,0
111526.675,96.8915,-932.9,0,0
112828.3,102.419,-922.677,0,0
114129.925,106.351,-913.798,0,0
115431.55,108.855,-905.637,0,0
116733.175,109.061,-897.264,0,0
118034.8,107.619,-887.012,0,0
119336.425,108.915,-873.832,0,0
120638.05,114.037,-869.136,0,0
121939.675,106.564,-863.225,0,0
123241,101.623,-850.894,0,0
124543,98.6654,-837.818,0,0
125845,97.5232,-825.938,0,0
127146,94.7526,-815.82,0,0
128448,89.3344,-805.844,0,0
129749,81.4383,-791.316,0,0
131051,75.8728,-773.528,0,0
132353,72.8062,-754.665,0,0
133654,71.4778,-735.713,0,0
134956,71.7849,-716.761,0,0
136258,73.4418,-698.182,0,0
137559,75.3501,-680.518,0,0
138860.775,77.2769,-661.942,0,0
140162.4,80.686,-642.85,0,0
141464.025,85.7709,-623.725,0,0
142765.65,91.6227,-605.553,0,0
144067.275,98.0762,-587.368,0,0
145368.9,105.315,-568.921,0,0
146670.525,114.252,-550.307,0,0
147972.15,124.392,-531.906,0,0
149273.775,136.087,-513.828,0,0
150575.4,150.32,-494.901,0,0
151877.025,168.363,-477.345,0,0
153178.65,190.856,-464.081,0,0
154480,213.003,-458.194,0,0
155782,230.854,-454.277,0,0
157084,246.785,-451.271,0,0
158385,261.881,-447.007,0,0
159687,281.871,-446.115,0,0
160988,296.775,-450.226,0,0
162290,306.929,-455.415,0,0
163592,310.763,-457.092,0,0
164893,316.832,-449.207,0,0
166195,332.557,-437.781,0,0
167497,361.075,-435.606,0,0
168798,389.704,-447.156,0,0
170100,413.722,-475.866,0,0
171401.375,414.604,-515.681,0,0
172703.0,392.8,-547.695,0,0
174004.625,358.971,-558.324,0,0
175306.25,328.038,-551.4,0,0
176607.875,306.437,-530.547,0,0
177909.5,296.81,-506.764,0,0
179211.125,295.085,-483.564,0,0
180512.75,298.831,-464.365,0,0
181814.375,302.904,-448.117,0,0
183116.0,305.373,-432.048,0,0
184417.625,308.71,-411.905,0,0
185719.25,315.643,-390.396,0,0
187021,324.193,-366.334,0,0
188322,337.829,-339.046,0,0
189624,357.419,-309.816,0,0
190926,385.224,-279.642,0,0
192227,422.927,-250.658,0,0
193529,470.398,-227.439,0,0
194831,525.042,-211.629,0,0
196132,587.313,-202.02,0,0
197434,660.476,-202.451,0,0
198735,745.172,-218.828,0,0
200037,837.216,-268.545,0,0
201339,912.026,-352.012,0,0
202640.35,955.465,-453.755,0,0
203941.975,969.363,-562.637,0,0
205243.6,955.239,-663.398,0,0
206545.225,920.734,-755.402,0,0
207846.85,862.301,-834.629,0,0
209148.475,788.272,-887.058,0,0
210450.1,717.453,-910.234,0,0
211751.725,657.969,-917.003,0,0
213053.35,607.692,-915.157,0,0
214354.975,572.131,-903.673,0,0
215656.6,548.77,-901.502,0,0
216958.225,522.628,-901.987,0,0
218259.85,498.654,-902.328,0,0
219561,474.436,-903.522,0,0
220863,448.133,-902.22,0,0
222165,424.999,-897.8,0,0
223466,405.605,-892.194,0,0
224768,387.253,-891.181,0,0
226070,365.639,-890.818,0,0
227371,340.552,-888.257,0,0
228673,313.872,-879.786,0,0
229974,290.876,-866.135,0,0
231276,270.991,-850.351,0,0
232578,255.526,-833.58,0,0
233879,242.399,-816.301,0,0
235180.95,233.111,-799.921,0,0
236482.575,224.541,-784.68,0,0
237784.2,218.439,-768.737,0,0
239085.825,214.917,-754.335,0,0
240387.45,212.821,-741.909,0,0
241689.075,211.713,-731.789,0,0
242990.7,209.868,-723.962,0,0
244292.325,205.946,-717.317,0,0
245593.95,200.309,-709.249,0,0
246895.575,194.718,-699.3,0,0
248197.2,190.778,-687.907,0,0
249498.825,189.223,-676.596,0,0
250800,188.489,-667.71,0,0
252102,185.509,-659.054,0,0
253404,182.689,-648.433,0,0
254705,179.457,-637.112,0,0
256007,177.577,-621.581,0,0
257309,179.96,-603.657,0,0
258610,188.153,-585.484,0,0
259912,202.479,-570.522,0,0
261213,220.108,-559.742,0,0
262515,241.777,-554.212,0,0
263817,263.673,-559.269,0,0
265118,279.834,-567.662,0,0
266420,296.778,-579.35,0,0
267721.55,309.97,-601.039,0,0
269023.175,309.967,-627.258,0,0
270324.8,298.958,-646.304,0,0
271626.425,288.157,-658.963,0,0
272928.05,274.662,-668.778,0,0
274229.675,262.732,-676.604,0,0
275531.3,246.286,-684.367,0,0
276832.925,224.502,-685.621,0,0
278134.55,204.716,-675.925,0,0
279436.175,195.838,-661.316,0,0
280737.8,192.052,-652.769,0,0
282039.425,189.03,-644.098,0,0
283341,189.373,-638.463,0,0
284643,188.001,-637.444,0,0
285944,181.541,-636.734,0,0
287246,173.888,-630.614,0,0
288548,167.719,-620.594,0,0
289849,167.981,-607.675,0,0
291151,175.597,-597.4,0,0
292452,186.953,-594.986,0,0
293754,196.553,-600.606,0,0
295056,199.446,-612.493,0,0
296357,193.038,-623.043,0,0
297659,183.007,-627.764,0,0
298960.525,173.648,-628.987,0,0
300262.15,164.469,-628.277,0,0
301563.775,156.081,-625.707,0,0
302865.4,148.492,-622.474,0,0
304167.025,141.071,-617.904,0,0
305468.65,135.004,-612.37,0,0
306770.275,130.218,-606.156,0,0
308071.9,127.326,-600.291,0,0
309373.525,124.887,-596.075,0,0
310675.15,121.566,-591.888,0,0
311976.775,118.548,-587.168,0,0
313278.4,116.432,-582.141,0,0
314580,115.024,-578.133,0,0
315882,113.487,-574.509,0,0
317183,112.208,-571.254,0,0
318485,111.211,-568.688,0,0
319787,109.655,-567.636,0,0
321088,106.127,-567.325,0,0
322390,100.632,-565.909,0,0
323691,94.0794,-562.028,0,0
324993,88.7566,-556.177,0,0
326295,84.8871,-549.603,0,0
327596,81.9745,-543.126,0,0
328898,79.4223,-536.109,0,0
330200,78.68,-528.6,0,0
331501.125,79.8685,-522.061,0,0
332802.75,81.5739,-518.12,0,0
334104.375,81.4827,-515.466,0,0
335406.0,80.0008,-512.381,0,0
336707.625,78.1412,-508.149,0,0
338009.25,76.4036,-503.09,0,0
339310.875,75.2672,-496.798,0,0
340612.5,75.9976,-490.039,0,0
341914.125,78.6668,-483.947,0,0
343215.75,82.6705,-479.801,0,0
344517.375,86.4317,-477.986,0,0
345819.0,88.7991,-477.717,0,0
347121,89.5001,-477.965,0,0
348422,88.78,-477.656,0,0
349724,87.4987,-476.888,0,0
351025,85.3373,-475.387,0,0
352327,83.3457,-472.324,0,0
353629,82.3912,-469.162,0,0
354930,81.533,-466.118,0,0
356232,80.9345,-462.732,0,0
357534,80.854,-459.732,0,0
358835,80.3523,-457.256,0,0
360137,79.1853,-454.273,0,0
361438,78.5135,-450.407,0,0
362740.1,78.4789,-446.699,0,0
364041.725,78.5884,-442.909,0,0
365343.35,78.7452,-439.088,0,0
366644.975,79.224,-434.777,0,0
367946.6,80.5283,-429.928,0,0
369248.225,83.2275,-425.275,0,0
370549.85,87.3781,-420.976,0,0
371851.475,93.4788,-418.865,0,0
373153.1,99.1375,-420.291,0,0
374454.725,101.918,-423.543,0,0
375756.35,102.392,-426.26,0,0
377057.975,101.583,-428.073,0,0
378359.6,100.945,-428.576,0,0
379661,100.565,-429.531,0,0
380963,99.0125,-430.162,0,0
382264,98.4575,-429.791,0,0
383566,98.2383,-430.616,0,0
384868,97.0029,-432.88,0,0
386169,92.9407,-434.972,0,0
387471,87.4706,-434.236,0,0
388773,83.4525,-430.786,0,0
390074,82.2039,-427.278,0,0
391376,81.7247,-425.976,0,0
392677,79.6699,-425.66,0,0
393979,76.2959,-424.906,0,0
395280.7,72.2668,-422.788,0,0
396582.325,68.4206,-419.473,0,0
397883.95,65.1997,-415.167,0,0
399185.575,62.6622,-410.124,0,0
400006.6,61.6671,-406.713,0,0