File: Accelerated corrosion test data/2025-10-21_18-00-04/sample_2.csv
Frequency (Hz),Impedance (ohms),Phase (Radians),Temperature (C),Humidity (%)
10000.0,228.809,-11482.8,0,0
11301.625,203.539,-10169.7,0,0
12603.25,183.319,-9130,0,0
13904.875,185.269,-8274.59,0,0
15206.5,167.015,-7585.4,0,0
16508.125,142.688,-6989.39,0,0
17809.75,132.804,-6479.1,0,0
19111.375,128.209,-6037.54,0,0
20413.0,117.86,-5652.3,0,0
21714.625,128.57,-5322.41,0,0
23016.25,112.411,-5024.9,0,0
24317.875,102.449,-4757.87,0,0
25619.5,97.4897,-4512.94,0,0
26921.1,94.8663,-4293.84,0,0
28222.7,89.6633,-4092.97,0,0
29524.4,92.8757,-3908.37,0,0
30826,87.8038,-3754.13,0,0
32127.6,81.7806,-3599.08,0,0
33429.2,79.5036,-3460.28,0,0
34730.9,75.2922,-3328.63,0,0
36032.5,72.8893,-3206.97,0,0
37334.1,70.4445,-3092.93,0,0
38635.7,68.4323,-2987.38,0,0
39937.4,66.7212,-2887.92,0,0
41239,65.2622,-2794.47,0,0
42540.6,64.3038,-2707.48,0,0
43842.225,62.7906,-2625.41,0,0
45143.85,61.5491,-2547.24,0,0
46445.475,61.219,-2474.65,0,0
47747.1,60.133,-2404.94,0,0
49048.725,60.0773,-2340.84,0,0
50350.35,57.5775,-2278.39,0,0
51651.975,56.1407,-2218.88,0,0
52953.6,54.7633,-2161.34,0,0
54255.225,53.9609,-2106.44,0,0
55556.85,53.5446,-2054.2,0,0
56858.475,53.4585,-2004.16,0,0
58160.1,53.7573,-1956.63,0,0
59461.7,54.2543,-1910.41,0,0
60763.3,56.1441,-1867.7,0,0
62065,58.6483,-1829.28,0,0
63366.6,55.2992,-1792.34,0,0
64668.2,52.3014,-1754.21,0,0
65969.8,50.486,-1714.78,0,0
67271.5,50.7811,-1677.24,0,0
68573.1,53.5518,-1643.21,0,0
69874.7,55.3625,-1612.48,0,0
71176.3,52.1686,-1584.66,0,0
72478,47.4957,-1554.05,0,0
73779.6,44.921,-1520.76,0,0
75081.2,44.9923,-1488.32,0,0
76382.825,46.6964,-1457.83,0,0
77684.45,49.5453,-1429.42,0,0
78986.075,52.627,-1405.24,0,0
80287.7,51.5647,-1383.56,0,0
81589.325,48.8306,-1358.41,0,0
82890.95,47.6838,-1332.64,0,0
84192.575,48.4523,-1307.88,0,0
85494.2,49.0096,-1284.24,0,0
86795.825,50.1186,-1261.94,0,0
88097.45,50.6015,-1240.58,0,0
89399.075,51.0549,-1219.18,0,0
90700.7,50.9199,-1198.79,0,0
92002.3,52.6511,-1177.27,0,0
93303.9,54.7361,-1158.46,0,0
94605.6,54.8968,-1142.32,0,0
95907.2,54.0703,-1122.37,0,0
97208.8,57.2506,-1105.04,0,0
98510.4,56.934,-1091.27,0,0
99812.1,53.038,-1075.98,0,0
101114,50.14,-1058.65,0,0
102415,46.657,-1038.61,0,0
103717,45.8181,-1017.45,0,0
105019,49.2132,-997.137,0,0
106320.175,53.7127,-979.897,0,0
107621.8,57.8051,-967.948,0,0
108923.425,56.0522,-956.168,0,0
110225.05,52.7131,-941.015,0,0
111526.675,51.3726,-923.007,0,0
112828.3,51.6966,-905.603,0,0
114129.925,53.1247,-888.395,0,0
115431.55,55.7332,-871.655,0,0
116733.175,58.971,-855.981,0,0
118034.8,62.8772,-841.259,0,0
119336.425,67.3089,-828.794,0,0
120638.05,70.2074,-818.393,0,0
121939.675,70.1393,-807.739,0,0
123241,69.4235,-795.104,0,0
124543,69.2021,-781.994,0,0
125845,68.6553,-767.626,0,0
127146,69.6215,-752.235,0,0
128448,72.1939,-737.555,0,0
129749,75.2868,-723.894,0,0
131051,78.5996,-711.275,0,0
132353,80.1451,-699.447,0,0
133654,81.5596,-686.374,0,0
134956,82.3625,-672.893,0,0
136258,84.1882,-658.051,0,0
137559,86.9896,-642.955,0,0
138860.775,89.7412,-628.405,0,0
140162.4,92.206,-612.233,0,0
141464.025,97.545,-593.502,0,0
142765.65,106.567,-576.506,0,0
144067.275,115.499,-560.778,0,0
145368.9,125.73,-545.299,0,0
146670.525,137.176,-530.141,0,0
147972.15,150.955,-514.325,0,0
149273.775,170.759,-498.269,0,0
150575.4,198.77,-490.766,0,0
151877.025,224.352,-497.663,0,0
153178.65,237.877,-512.673,0,0
154480,239.982,-524.376,0,0
155782,239.582,-529.365,0,0
157084,235.641,-532.73,0,0
158385,232.054,-530.791,0,0
159687,228.81,-525.69,0,0
160988,229.431,-518.845,0,0
162290,238.173,-516.768,0,0
163592,233.498,-524.074,0,0
164893,219.821,-522.576,0,0
166195,206.656,-510.226,0,0
167497,198.576,-493.981,0,0
168798,192.485,-472.699,0,0
170100,192.861,-449.477,0,0
171401.375,196.682,-427.266,0,0
172703.0,204.396,-403.829,0,0
174004.625,215.009,-380.419,0,0
175306.25,231.822,-357.138,0,0
176607.875,254.65,-337.034,0,0
177909.5,281.706,-325.147,0,0
179211.125,304.087,-322.231,0,0
180512.75,314.627,-323.385,0,0
181814.375,320.38,-308.229,0,0
183116.0,335.089,-288.891,0,0
184417.625,358.259,-265.582,0,0
185719.25,388.981,-247.908,0,0
187021,424.162,-232.241,0,0
188322,465.076,-223.227,0,0
189624,503.172,-219.737,0,0
190926,546.901,-210.994,0,0
192227,605.316,-207.65,0,0
193529,675.719,-220.279,0,0
194831,743.834,-259.027,0,0
196132,799.86,-313.677,0,0
197434,845.183,-375.996,0,0
198735,880.513,-453.634,0,0
200037,894.951,-536.178,0,0
201339,891.341,-624.017,0,0
202640.35,861.277,-701.218,0,0
203941.975,821.512,-766.53,0,0
205243.6,775.024,-821.662,0,0
206545.225,712.104,-857.549,0,0
207846.85,656.45,-873.06,0,0
209148.475,618.691,-880.814,0,0
210450.1,578.426,-897.679,0,0
211751.725,529.213,-906.419,0,0
213053.35,484.036,-897.342,0,0
214354.975,449.249,-884.354,0,0
215656.6,420.047,-869.563,0,0
216958.225,397.424,-851.721,0,0
218259.85,381.461,-835.157,0,0
219561,369.52,-820.064,0,0
220863,360.881,-806.751,0,0
222165,356.86,-795.757,0,0
223466,353.316,-789.211,0,0
224768,350.247,-784.072,0,0
226070,347.498,-780.59,0,0
227371,346.358,-779.236,0,0
228673,346.28,-783.122,0,0
229974,340.62,-792.092,0,0
231276,329.433,-799.092,0,0
232578,315.96,-805.333,0,0
233879,299.296,-808.38,0,0
235180.95,282.158,-808.236,0,0
236482.575,265.711,-806.02,0,0
237784.2,248.479,-801.724,0,0
239085.825,233.253,-794.63,0,0
240387.45,218.676,-786.657,0,0
241689.075,205.954,-776.75,0,0
242990.7,196.057,-765.865,0,0
244292.325,188.932,-756.933,0,0
245593.95,181.785,-751.424,0,0
246895.575,170.291,-747.111,0,0
248197.2,155.992,-738.409,0,0
249498.825,143.036,-726.124,0,0
250800,131.903,-710.648,0,0
252102,124.904,-692.931,0,0
253404,121.651,-676.275,0,0
254705,119.809,-660.379,0,0
256007,120.214,-644.172,0,0
257309,123.654,-629.605,0,0
258610,128.545,-616.544,0,0
259912,135.175,-605.244,0,0
261213,143.191,-596.319,0,0
262515,151.496,-590.277,0,0
263817,158.923,-586.403,0,0
265118,166.1,-583.932,0,0
266420,172.03,-583.534,0,0
267721.55,176.556,-583.878,0,0
269023.175,179.296,-585.198,0,0
270324.8,179.627,-585.028,0,0
271626.425,180.938,-582.169,0,0
272928.05,184.726,-578.234,0,0
274229.675,193.048,-575.324,0,0
275531.3,205.662,-579.235,0,0
276832.925,213.973,-593.191,0,0
278134.55,212.257,-609.209,0,0
279436.175,203.654,-621.663,0,0
280737.8,192.014,-629.327,0,0
282039.425,180.22,-634.237,0,0
283341,164.773,-636.057,0,0
284643,152.252,-631.761,0,0
285944,139.528,-627.974,0,0
287246,125.298,-618.569,0,0
288548,115.613,-601.658,0,0
289849,116.685,-582.054,0,0
291151,127.252,-568.25,0,0
292452,142.483,-565.135,0,0
293754,150.286,-573.826,0,0
295056,147.624,-578.693,0,0
296357,149.605,-577.446,0,0
297659,153.379,-587.49,0,0
298960.525,144.628,-596.742,0,0
300262.15,133.537,-598.728,0,0
301563.775,125.024,-596.049,0,0
302865.4,119.891,-593.345,0,0
304167.025,115.055,-592.939,0,0
305468.65,107.915,-592.891,0,0
306770.275,99.2408,-590.447,0,0
308071.9,91.4159,-585.938,0,0
309373.525,84.5943,-580.393,0,0
310675.15,78.7731,-574.286,0,0
311976.775,73.8572,-567.797,0,0
313278.4,69.8086,-561.124,0,0
314580,66.5604,-554.491,0,0
315882,63.7651,-548.057,0,0
317183,61.3968,-541.531,0,0
318485,59.7649,-535.183,0,0
319787,58.4951,-529.16,0,0
321088,57.1815,-523.327,0,0
322390,56.21,-517.303,0,0
323691,55.5685,-511.205,0,0
324993,55.6298,-504.464,0,0
326295,57.6933,-497.792,0,0
327596,61.1764,-493.513,0,0
328898,63.436,-490.962,0,0
330200,65.5923,-488.913,0,0
331501.125,66.938,-488.264,0,0
332802.75,66.726,-488.355,0,0
334104.375,64.4444,-487.54,0,0
335406.0,61.9278,-485.153,0,0
336707.625,59.8137,-482.063,0,0
338009.25,57.977,-478.546,0,0
339310.875,56.2875,-474.751,0,0
340612.5,54.9868,-470.591,0,0
341914.125,54.0607,-466.237,0,0
343215.75,53.5665,-461.729,0,0
344517.375,53.4794,-457.048,0,0
345819.0,54.0673,-452.592,0,0
347121,55.0142,-448.378,0,0
348422,56.3903,-444.512,0,0
349724,58.1288,-441.016,0,0
351025,60.079,-438.212,0,0
352327,61.7262,-436.154,0,0
353629,62.7297,-434.009,0,0
354930,63.9808,-431.803,0,0
356232,65.3114,-429.567,0,0
357534,67.1141,-427.652,0,0
358835,69.0809,-426.488,0,0
360137,70.6997,-426.211,0,0
361438,71.5641,-426.205,0,0
362740.1,71.7597,-426.332,0,0
364041.725,71.3805,-426.237,0,0
365343.35,70.581,-425.622,0,0
366644.975,69.8297,-424.6,0,0
367946.6,69.5367,-423.268,0,0
369248.225,69.7236,-422.457,0,0
370549.85,69.2184,-422.444,0,0
371851.475,67.9577,-421.84,0,0
373153.1,67.0795,-421.038,0,0
374454.725,65.823,-420.496,0,0
375756.35,64.1701,-419.726,0,0
377057.975,62.5477,-418.497,0,0
378359.6,60.9868,-417.674,0,0
379661,58.0467,-416.595,0,0
380963,55.343,-413.05,0,0
382264,55.3012,-410.333,0,0
383566,54.1468,-409.256,0,0
384868,51.9019,-407.489,0,0
386169,49.6977,-404.769,0,0
387471,47.9338,-401.62,0,0
388773,46.5142,-398.069,0,0
390074,46.0456,-394.349,0,0
391376,46.2935,-391.667,0,0
392677,45.6881,-389.94,0,0
393979,43.9637,-387.649,0,0
395280.7,42.1519,-384.147,0,0
396582.325,41.168,-379.926,0,0
397883.95,41.0722,-375.645,0,0
399185.575,41.6367,-371.717,0,0
400006.6,42.1172,-369.522,0,0