File: Accelerated corrosion test data/2025-10-15_18-00-03/sample_8.csv
Frequency (Hz),Impedance (ohms),Phase (Radians),Temperature (C),Humidity (%)
10000.0,311.36,-10952.2,0,0
11301.625,275.831,-9705.95,0,0
12603.25,253.695,-8716.52,0,0
13904.875,225.387,-7917.06,0,0
15206.5,204.656,-7244.11,0,0
16508.125,189.024,-6678.7,0,0
17809.75,175.231,-6193.57,0,0
19111.375,167.463,-5771.39,0,0
20413.0,160.6,-5410.14,0,0
21714.625,149.914,-5090.82,0,0
23016.25,144.689,-4808.63,0,0
24317.875,132.638,-4552.34,0,0
25619.5,125.388,-4319.6,0,0
26921.1,120.446,-4109.1,0,0
28222.7,117.389,-3920.1,0,0
29524.4,113.778,-3747.31,0,0
30826,109.596,-3589.87,0,0
32127.6,105.467,-3441.94,0,0
33429.2,105.047,-3305.52,0,0
34730.9,105.893,-3180.95,0,0
36032.5,108.579,-3070.07,0,0
37334.1,105.844,-2970.57,0,0
38635.7,96.1681,-2873.97,0,0
39937.4,88.1265,-2777.81,0,0
41239,85.7486,-2687.4,0,0
42540.6,82.4917,-2602.72,0,0
43842.225,81.5861,-2524.98,0,0
45143.85,77.6139,-2450.56,0,0
46445.475,74.6753,-2379.75,0,0
47747.1,72.9603,-2312.46,0,0
49048.725,70.8521,-2249.2,0,0
50350.35,69.0293,-2188.42,0,0
51651.975,68.1876,-2130.47,0,0
52953.6,67.5166,-2075.81,0,0
54255.225,66.5542,-2025.93,0,0
55556.85,63.4521,-1976.52,0,0
56858.475,61.337,-1927.79,0,0
58160.1,60.3993,-1881.28,0,0
59461.7,59.724,-1837.52,0,0
60763.3,58.2679,-1794.88,0,0
62065,57.9728,-1754.04,0,0
63366.6,58.1752,-1714.49,0,0
64668.2,58.8512,-1677.88,0,0
65969.8,57.9959,-1643.29,0,0
67271.5,55.9991,-1608.85,0,0
68573.1,55.128,-1574.93,0,0
69874.7,54.8804,-1541.81,0,0
71176.3,54.7968,-1510.35,0,0
72478,54.9791,-1480.58,0,0
73779.6,54.2667,-1451.58,0,0
75081.2,53.4175,-1423.13,0,0
76382.825,53.1592,-1395.26,0,0
77684.45,52.8206,-1368.51,0,0
78986.075,52.2259,-1342.2,0,0
80287.7,51.8213,-1316.15,0,0
81589.325,51.8347,-1290.41,0,0
82890.95,52.7398,-1265.46,0,0
84192.575,53.9879,-1241.65,0,0
85494.2,54.8698,-1220.04,0,0
86795.825,54.3173,-1196.97,0,0
88097.45,55.1739,-1174.52,0,0
89399.075,55.9701,-1152.16,0,0
90700.7,57.8774,-1129.67,0,0
92002.3,62.1044,-1108.65,0,0
93303.9,65.8313,-1090.88,0,0
94605.6,65.7612,-1072.99,0,0
95907.2,67.641,-1053.36,0,0
97208.8,71.3912,-1034.14,0,0
98510.4,76.2977,-1016.86,0,0
99812.1,81.0349,-1002.66,0,0
101114,84.9364,-989.642,0,0
102415,86.7409,-978.266,0,0
103717,85.7926,-966.549,0,0
105019,85.0617,-953.228,0,0
106320.175,84.3309,-938.744,0,0
107621.8,84.5691,-925.11,0,0
108923.425,84.0038,-910.871,0,0
110225.05,85.1386,-896.712,0,0
111526.675,85.8197,-883.977,0,0
112828.3,86.3884,-871.629,0,0
114129.925,86.222,-859.854,0,0
115431.55,85.7521,-847.696,0,0
116733.175,83.9393,-835.43,0,0
118034.8,83.4512,-821.991,0,0
119336.425,82.8979,-809.386,0,0
120638.05,81.561,-796.413,0,0
121939.675,80.8709,-782.966,0,0
123241,80.3231,-769.496,0,0
124543,79.9376,-755.538,0,0
125845,80.1347,-741.693,0,0
127146,80.9704,-727.615,0,0
128448,82.0433,-714.25,0,0
129749,83.1281,-701.092,0,0
131051,84.2292,-687.366,0,0
132353,85.7735,-674.729,0,0
133654,86.46,-661.572,0,0
134956,87.8116,-647.535,0,0
136258,90.8498,-634.269,0,0
137559,91.3286,-622.929,0,0
138860.775,90.5744,-607.71,0,0
140162.4,92.6037,-591.581,0,0
141464.025,95.4268,-575.703,0,0
142765.65,98.4508,-559.003,0,0
144067.275,103.202,-541.389,0,0
145368.9,109.866,-522.814,0,0
146670.525,119.295,-505.361,0,0
147972.15,129.382,-489.707,0,0
149273.775,141.258,-471.06,0,0
150575.4,159.956,-454.334,0,0
151877.025,184.865,-446.833,0,0
153178.65,200.805,-449.994,0,0
154480,208.419,-452.025,0,0
155782,219.195,-445.635,0,0
157084,224.507,-454.291,0,0
158385,220.698,-444.452,0,0
159687,232.487,-436.794,0,0
160988,231.626,-435.331,0,0
162290,237.792,-420.619,0,0
163592,251.33,-415.381,0,0
164893,260.349,-414.92,0,0
166195,262.591,-420.835,0,0
167497,252.027,-415.252,0,0
168798,248.318,-401.049,0,0
170100,249.174,-382.677,0,0
171401.375,251.372,-364.532,0,0
172703.0,262.11,-340.182,0,0
174004.625,278.353,-324.357,0,0
175306.25,285.405,-311.89,0,0
176607.875,295.837,-284.398,0,0
177909.5,316.905,-258.71,0,0
179211.125,346.304,-232.504,0,0
180512.75,388.074,-212.178,0,0
181814.375,433.972,-206.325,0,0
183116.0,476.466,-213.825,0,0
184417.625,505.418,-224.636,0,0
185719.25,533.611,-227,0,0
187021,567.544,-231.69,0,0
188322,603.299,-236.369,0,0
189624,639.823,-252.371,0,0
190926,673.677,-258.462,0,0
192227,722.071,-276.365,0,0
193529,770.334,-291.349,0,0
194831,843.944,-331.295,0,0
196132,904.006,-405.357,0,0
197434,937.103,-506.805,0,0
198735,930.755,-610.842,0,0
200037,899.019,-705.229,0,0
201339,840.496,-776.619,0,0
202640.35,766.272,-834.007,0,0
203941.975,692.404,-843.8,0,0
205243.6,637.089,-845.426,0,0
206545.225,583.303,-830.767,0,0
207846.85,563.233,-802.215,0,0
209148.475,554.978,-795.342,0,0
210450.1,546.891,-789.646,0,0
211751.725,543.011,-790.314,0,0
213053.35,540.628,-799.183,0,0
214354.975,532.805,-813.763,0,0
215656.6,518.872,-830.983,0,0
216958.225,496.996,-845.023,0,0
218259.85,472.776,-853.968,0,0
219561,447.85,-857.709,0,0
220863,422.537,-857.707,0,0
222165,401.251,-849.36,0,0
223466,388.075,-841.664,0,0
224768,380.052,-837.672,0,0
226070,372.729,-842.386,0,0
227371,356.985,-849.86,0,0
228673,336.273,-852.76,0,0
229974,316.486,-853.005,0,0
231276,293.091,-851.909,0,0
232578,269.724,-845.286,0,0
233879,247.145,-835.198,0,0
235180.95,226.214,-819.781,0,0
236482.575,211.255,-800.996,0,0
237784.2,201.553,-782.568,0,0
239085.825,196.573,-764.987,0,0
240387.45,195.375,-753.293,0,0
241689.075,191.244,-745.61,0,0
242990.7,183.561,-736.451,0,0
244292.325,177.465,-724.244,0,0
245593.95,174.082,-712.921,0,0
246895.575,171.727,-702.188,0,0
248197.2,168.659,-693.117,0,0
249498.825,165.242,-682.18,0,0
250800,164.102,-669.828,0,0
252102,167.402,-658.268,0,0
253404,172.026,-652.34,0,0
254705,172.312,-648.318,0,0
256007,170.922,-642.446,0,0
257309,170.084,-634.207,0,0
258610,172.068,-624.911,0,0
259912,177.015,-616.77,0,0
261213,182.758,-611.609,0,0
262515,188.483,-608.505,0,0
263817,192.009,-606.004,0,0
265118,195.453,-600.669,0,0
266420,204.396,-593.448,0,0
267721.55,221.628,-591.01,0,0
269023.175,241.501,-601.37,0,0
270324.8,253.405,-623.169,0,0
271626.425,253.371,-650.563,0,0
272928.05,239.703,-676.317,0,0
274229.675,214.154,-692.882,0,0
275531.3,186.362,-694.569,0,0
276832.925,165.417,-687.232,0,0
278134.55,150.334,-677.409,0,0
279436.175,138.745,-666.208,0,0
280737.8,132.488,-654.057,0,0
282039.425,130.252,-644.712,0,0
283341,128.743,-639.037,0,0
284643,125.329,-633.844,0,0
285944,123.971,-626.827,0,0
287246,126.847,-623.511,0,0
288548,126.91,-627.64,0,0
289849,119.088,-631.198,0,0
291151,108.776,-629.422,0,0
292452,99.8082,-624.867,0,0
293754,91.9001,-618.535,0,0
295056,85.1475,-611.071,0,0
296357,80.3092,-602.851,0,0
297659,76.5616,-595.092,0,0
298960.525,73.5325,-587.067,0,0
300262.15,71.5979,-578.893,0,0
301563.775,71.2976,-570.934,0,0
302865.4,72.2294,-564.298,0,0
304167.025,73.5556,-559.002,0,0
305468.65,74.7933,-554.851,0,0
306770.275,75.852,-551.688,0,0
308071.9,76.4496,-549.325,0,0
309373.525,76.0212,-548.182,0,0
310675.15,74.0733,-546.283,0,0
311976.775,72.142,-543.789,0,0
313278.4,69.9727,-541.309,0,0
314580,67.2705,-538.299,0,0
315882,64.8029,-534.476,0,0
317183,63.0499,-530.294,0,0
318485,61.8378,-526.191,0,0
319787,61.161,-522.55,0,0
321088,60.446,-519.913,0,0
322390,58.9538,-517.422,0,0
323691,57.0824,-514.925,0,0
324993,54.541,-512.006,0,0
326295,51.9776,-508.274,0,0
327596,49.9242,-504.043,0,0
328898,48.2507,-499.871,0,0
330200,46.7407,-495.583,0,0
331501.125,45.5001,-491.302,0,0
332802.75,44.498,-486.924,0,0
334104.375,43.9356,-482.441,0,0
335406.0,43.794,-478.38,0,0
336707.625,43.7118,-474.744,0,0
338009.25,43.5197,-471.387,0,0
339310.875,43.137,-468.31,0,0
340612.5,42.4356,-465.195,0,0
341914.125,41.4734,-461.801,0,0
343215.75,40.7445,-458.099,0,0
344517.375,40.1619,-454.254,0,0
345819.0,39.8013,-450.244,0,0
347121,39.8664,-446.282,0,0
348422,40.2079,-442.459,0,0
349724,40.7432,-438.873,0,0
351025,41.4072,-435.491,0,0
352327,42.2851,-432.497,0,0
353629,42.9837,-429.767,0,0
354930,43.5097,-427.255,0,0
356232,43.998,-424.767,0,0
357534,44.261,-422.399,0,0
358835,44.4815,-419.921,0,0
360137,44.7746,-417.394,0,0
361438,45.0412,-415.008,0,0
362740.1,45.3305,-412.585,0,0
364041.725,45.5381,-410.153,0,0
365343.35,45.9559,-407.746,0,0
366644.975,46.3576,-405.494,0,0
367946.6,46.6662,-403.242,0,0
369248.225,47.1208,-400.819,0,0
370549.85,48.0877,-398.619,0,0
371851.475,48.9975,-397.248,0,0
373153.1,49.2874,-396.138,0,0
374454.725,48.9833,-394.848,0,0
375756.35,48.4846,-393.075,0,0
377057.975,48.497,-391.013,0,0
378359.6,48.607,-389.602,0,0
379661,47.811,-388.052,0,0
380963,47.659,-385.588,0,0
382264,48.0798,-384.291,0,0
383566,47.2897,-383.344,0,0
384868,45.9007,-381.694,0,0
386169,44.549,-379.355,0,0
387471,43.4622,-376.496,0,0
388773,42.8889,-373.398,0,0
390074,42.8461,-370.393,0,0
391376,42.8892,-367.799,0,0
392677,42.8146,-365.265,0,0
393979,42.6831,-362.619,0,0
395280.7,42.6358,-359.822,0,0
396582.325,42.8734,-357.016,0,0
397883.95,43.257,-354.385,0,0
399185.575,43.5843,-351.88,0,0
400006.6,43.7819,-350.312,0,0