File: Accelerated corrosion test data/2025-10-15_18-00-03/sample_1.csv
Frequency (Hz),Impedance (ohms),Phase (Radians),Temperature (C),Humidity (%)
10000.0,246.518,-12199.6,0,0
11301.625,222.06,-10805.2,0,0
12603.25,196.456,-9706.13,0,0
13904.875,182.086,-8783.11,0,0
15206.5,186.141,-8049.65,0,0
16508.125,157.369,-7425.81,0,0
17809.75,147.42,-6890.66,0,0
19111.375,137.615,-6421.77,0,0
20413.0,156.857,-5978.88,0,0
21714.625,136.6,-5661.42,0,0
23016.25,122.475,-5359.73,0,0
24317.875,112.68,-5067.15,0,0
25619.5,105.33,-4802.83,0,0
26921.1,114.415,-4554.08,0,0
28222.7,110.517,-4350.27,0,0
29524.4,106.748,-4184.42,0,0
30826,100.273,-3997.3,0,0
32127.6,97.8949,-3839.84,0,0
33429.2,88.9069,-3695.97,0,0
34730.9,81.9494,-3553.87,0,0
36032.5,77.626,-3423.02,0,0
37334.1,75.2036,-3301.02,0,0
38635.7,74.4269,-3187.44,0,0
39937.4,71.138,-3080.58,0,0
41239,72.1142,-2981.75,0,0
42540.6,70.357,-2889.65,0,0
43842.225,67.6097,-2802.98,0,0
45143.85,68.4165,-2721.51,0,0
46445.475,65.4292,-2644.98,0,0
47747.1,63.8747,-2571.3,0,0
49048.725,61.4055,-2501.06,0,0
50350.35,59.8853,-2434.73,0,0
51651.975,58.5212,-2371.27,0,0
52953.6,57.6958,-2310.29,0,0
54255.225,56.5524,-2253.31,0,0
55556.85,55.7863,-2197.82,0,0
56858.475,55.3948,-2144.99,0,0
58160.1,54.446,-2094.28,0,0
59461.7,54.8071,-2046.34,0,0
60763.3,54.3916,-2000.37,0,0
62065,52.9787,-1956.6,0,0
63366.6,52.4056,-1912.98,0,0
64668.2,52.8839,-1870.87,0,0
65969.8,54.9754,-1833.06,0,0
67271.5,53.6816,-1796.59,0,0
68573.1,53.1678,-1760.93,0,0
69874.7,52.1105,-1727.04,0,0
71176.3,50.4512,-1692.6,0,0
72478,48.3911,-1658.81,0,0
73779.6,47.9842,-1625.38,0,0
75081.2,48.5128,-1593.12,0,0
76382.825,49.1175,-1562.16,0,0
77684.45,50.2497,-1532.76,0,0
78986.075,51.821,-1505.29,0,0
80287.7,51.129,-1478.82,0,0
81589.325,50.5946,-1450.92,0,0
82890.95,51.239,-1424.05,0,0
84192.575,52.6716,-1398.05,0,0
85494.2,54.9877,-1373.34,0,0
86795.825,55.9255,-1350.31,0,0
88097.45,56.1753,-1327.02,0,0
89399.075,58.0398,-1302.33,0,0
90700.7,61.2447,-1279.1,0,0
92002.3,67.8229,-1258.04,0,0
93303.9,75.013,-1241.24,0,0
94605.6,73.7359,-1234.24,0,0
95907.2,66.9348,-1215.44,0,0
97208.8,64.7356,-1194.85,0,0
98510.4,64.2015,-1174.08,0,0
99812.1,63.2486,-1154.55,0,0
101114,63.2712,-1134.51,0,0
102415,63.3785,-1112.93,0,0
103717,68.2652,-1091.6,0,0
105019,75.2407,-1074.26,0,0
106320.175,81.6202,-1058.05,0,0
107621.8,88.1968,-1045.88,0,0
108923.425,92.2773,-1035.36,0,0
110225.05,94.0523,-1027.2,0,0
111526.675,93.9993,-1014.65,0,0
112828.3,95.9477,-1004.99,0,0
114129.925,94.5466,-996.904,0,0
115431.55,91.0807,-987.039,0,0
116733.175,86.5153,-974.707,0,0
118034.8,82.4198,-960.222,0,0
119336.425,80.8803,-944.553,0,0
120638.05,81.396,-930.16,0,0
121939.675,80.4171,-917.694,0,0
123241,79.0707,-903.333,0,0
124543,78.9095,-888.297,0,0
125845,79.7807,-873.628,0,0
127146,80.9075,-859.171,0,0
128448,83.0826,-844.775,0,0
129749,85.6481,-830.84,0,0
131051,90.6155,-817.666,0,0
132353,94.8546,-807.42,0,0
133654,97.5269,-796.985,0,0
134956,100.214,-786.439,0,0
136258,102.969,-775.688,0,0
137559,107.734,-765.951,0,0
138860.775,109.799,-759.669,0,0
140162.4,109.556,-751.052,0,0
141464.025,109.432,-740.8,0,0
142765.65,110.043,-729.874,0,0
144067.275,111.539,-718.44,0,0
145368.9,114.054,-707.341,0,0
146670.525,116.853,-697.421,0,0
147972.15,119.137,-688.484,0,0
149273.775,120.715,-677.436,0,0
150575.4,122.801,-669.255,0,0
151877.025,121.342,-657.729,0,0
153178.65,121.57,-642.513,0,0
154480,125.959,-625.824,0,0
155782,133.472,-609.309,0,0
157084,145.837,-594.725,0,0
158385,158.41,-585.737,0,0
159687,168.15,-574.802,0,0
160988,186.474,-564.262,0,0
162290,205.927,-564.485,0,0
163592,217.169,-567.649,0,0
164893,228.789,-569.883,0,0
166195,241.136,-576.532,0,0
167497,246.377,-587.914,0,0
168798,244.267,-599.599,0,0
170100,234.443,-605.359,0,0
171401.375,226.076,-602.278,0,0
172703.0,222.836,-596.908,0,0
174004.625,219.119,-592.572,0,0
175306.25,217.925,-586.491,0,0
176607.875,218.087,-583.18,0,0
177909.5,217.15,-580.146,0,0
179211.125,212.878,-578.612,0,0
180512.75,205.987,-574.484,0,0
181814.375,198.966,-565.968,0,0
183116.0,192.865,-555.204,0,0
184417.625,187.859,-541.553,0,0
185719.25,186.674,-524.998,0,0
187021,188.158,-510.055,0,0
188322,191.75,-495.08,0,0
189624,195.717,-480.61,0,0
190926,200.203,-465.548,0,0
192227,205.819,-448.97,0,0
193529,214.655,-431.791,0,0
194831,225.164,-414.895,0,0
196132,238.59,-397.299,0,0
197434,254.843,-379.63,0,0
198735,275.313,-363.179,0,0
200037,297.123,-348.23,0,0
201339,324.241,-332.195,0,0
202640.35,360.12,-317.937,0,0
203941.975,403.537,-312.755,0,0
205243.6,455.16,-322.187,0,0
206545.225,498.807,-351.314,0,0
207846.85,526.698,-390.327,0,0
209148.475,539.531,-430.157,0,0
210450.1,537.199,-466.123,0,0
211751.725,526.51,-483.132,0,0
213053.35,525.007,-486.237,0,0
214354.975,537.656,-493.673,0,0
215656.6,550.431,-507.294,0,0
216958.225,560.982,-523.504,0,0
218259.85,573.456,-539.425,0,0
219561,589.476,-556.928,0,0
220863,609.463,-584.064,0,0
222165,626.959,-623.47,0,0
223466,631.091,-674,0,0
224768,620.218,-723.818,0,0
226070,597.95,-770.535,0,0
227371,566.262,-811.486,0,0
228673,522.861,-844.511,0,0
229974,475.381,-860.929,0,0
231276,431.595,-864.39,0,0
232578,395.625,-860.123,0,0
233879,367.399,-854.193,0,0
235180.95,343.021,-849.24,0,0
236482.575,317.994,-844.647,0,0
237784.2,294.056,-837.107,0,0
239085.825,272.093,-827.369,0,0
240387.45,252.819,-815.696,0,0
241689.075,236.176,-804.02,0,0
242990.7,222.102,-791.444,0,0
244292.325,209.839,-780.052,0,0
245593.95,198.047,-769.238,0,0
246895.575,186.351,-757.667,0,0
248197.2,176.297,-744.783,0,0
249498.825,168.106,-732.25,0,0
250800,161.077,-719.883,0,0
252102,154.916,-707.611,0,0
253404,149.413,-695.191,0,0
254705,145.636,-682.203,0,0
256007,143.68,-670.074,0,0
257309,142.334,-658.476,0,0
258610,141.857,-646.961,0,0
259912,143.665,-635.094,0,0
261213,147.996,-625.344,0,0
262515,153.184,-618.019,0,0
263817,158.792,-612.938,0,0
265118,164.668,-609.991,0,0
266420,171.15,-610.963,0,0
267721.55,173.262,-617.145,0,0
269023.175,168.309,-623.347,0,0
270324.8,158.103,-624.645,0,0
271626.425,148.09,-619.179,0,0
272928.05,141.959,-610.175,0,0
274229.675,139.995,-601.035,0,0
275531.3,140.215,-593.571,0,0
276832.925,141.231,-587.324,0,0
278134.55,143.433,-582.565,0,0
279436.175,145.346,-580.238,0,0
280737.8,145.793,-579.033,0,0
282039.425,144.524,-578.561,0,0
283341,141.145,-576.871,0,0
284643,137.934,-573.057,0,0
285944,135.585,-569.363,0,0
287246,131.369,-564.983,0,0
288548,128.617,-556.345,0,0
289849,130.997,-548.29,0,0
291151,134.172,-544.289,0,0
292452,135.813,-541.983,0,0
293754,134.712,-539.103,0,0
295056,133.598,-533,0,0
296357,136.343,-525.375,0,0
297659,141.53,-520.697,0,0
298960.525,146.413,-517.264,0,0
300262.15,151.708,-514.829,0,0
301563.775,157.94,-513.113,0,0
302865.4,165.264,-514.738,0,0
304167.025,170.363,-518.492,0,0
305468.65,174.277,-522.674,0,0
306770.275,177.666,-528.429,0,0
308071.9,178.518,-536.034,0,0
309373.525,176.399,-542.273,0,0
310675.15,174.438,-548.216,0,0
311976.775,170.621,-555.203,0,0
313278.4,163.34,-561.284,0,0
314580,154.97,-563.95,0,0
315882,147.369,-565.286,0,0
317183,139.183,-565.455,0,0
318485,131.229,-564.199,0,0
319787,123.686,-561.791,0,0
321088,116.605,-558.152,0,0
322390,110.52,-553.438,0,0
323691,105.795,-547.816,0,0
324993,102.88,-542.357,0,0
326295,101.104,-537.669,0,0
327596,99.9666,-534.134,0,0
328898,98.5928,-531.434,0,0
330200,96.875,-529.553,0,0
331501.125,94.3903,-528.044,0,0
332802.75,91.1282,-526.314,0,0
334104.375,87.527,-524.003,0,0
335406.0,83.6356,-521.067,0,0
336707.625,80.0936,-517.572,0,0
338009.25,76.8866,-513.761,0,0
339310.875,73.9138,-509.665,0,0
340612.5,71.426,-505.434,0,0
341914.125,69.2212,-501.378,0,0
343215.75,67.0757,-497.443,0,0
344517.375,64.8611,-493.327,0,0
345819.0,62.8034,-489.002,0,0
347121,60.9792,-484.472,0,0
348422,59.5757,-479.633,0,0
349724,58.6733,-475.048,0,0
351025,57.9959,-470.565,0,0
352327,57.4798,-466.22,0,0
353629,57.2296,-462.115,0,0
354930,56.9141,-458.09,0,0
356232,56.8931,-454.052,0,0
357534,56.938,-450.251,0,0
358835,56.9951,-446.596,0,0
360137,57.1888,-442.773,0,0
361438,57.5824,-439.218,0,0
362740.1,57.8881,-435.846,0,0
364041.725,58.2482,-432.282,0,0
365343.35,58.8231,-428.866,0,0
366644.975,59.3665,-425.648,0,0
367946.6,59.4795,-422.113,0,0
369248.225,60.1628,-417.685,0,0
370549.85,62.142,-413.261,0,0
371851.475,65.2342,-409.478,0,0
373153.1,68.7811,-407.047,0,0
374454.725,72.2481,-405.904,0,0
375756.35,74.7686,-405.664,0,0
377057.975,76.6431,-405.386,0,0
378359.6,78.4679,-405.349,0,0
379661,79.7122,-405.724,0,0
380963,80.9735,-405.689,0,0
382264,82.4571,-407.133,0,0
383566,82.2431,-409.404,0,0
384868,80.3792,-411.14,0,0
386169,77.6641,-411.783,0,0
387471,74.4838,-411.189,0,0
388773,71.7849,-409.423,0,0
390074,70.0581,-407.221,0,0
391376,68.8011,-405.345,0,0
392677,67.4583,-403.974,0,0
393979,65.3557,-402.535,0,0
395280.7,63.0034,-400.243,0,0
396582.325,60.8738,-397.18,0,0
397883.95,59.3794,-393.829,0,0
399185.575,58.2734,-390.269,0,0
400006.6,57.7921,-387.992,0,0