File: Accelerated corrosion test data/2025-10-15_18-00-03/sample_7.csv
Frequency (Hz),Impedance (ohms),Phase (Radians),Temperature (C),Humidity (%)
10000.0,273.069,-12085.3,0,0
11301.625,246.875,-10691.6,0,0
12603.25,256.161,-9640.45,0,0
13904.875,208.872,-8746.78,0,0
15206.5,194.722,-8010.49,0,0
16508.125,171.23,-7369.4,0,0
17809.75,171.288,-6814.86,0,0
19111.375,181.006,-6374.04,0,0
20413.0,168.311,-5978.78,0,0
21714.625,157.369,-5638.55,0,0
23016.25,130.072,-5315.39,0,0
24317.875,122.841,-5022.8,0,0
25619.5,118.457,-4758.67,0,0
26921.1,122.436,-4514.24,0,0
28222.7,177.66,-4302.1,0,0
29524.4,139.544,-4171.8,0,0
30826,132.432,-3987.77,0,0
32127.6,117.624,-3839.73,0,0
33429.2,101.582,-3689.34,0,0
34730.9,92.2354,-3544.57,0,0
36032.5,88.7907,-3410.52,0,0
37334.1,86.0774,-3287.09,0,0
38635.7,86.6744,-3170.1,0,0
39937.4,98.6781,-3070.5,0,0
41239,86.7619,-2983.26,0,0
42540.6,80.1328,-2887.37,0,0
43842.225,79.0734,-2798.46,0,0
45143.85,80.3244,-2720.71,0,0
46445.475,77.3303,-2648.33,0,0
47747.1,70.8411,-2572.15,0,0
49048.725,67.9928,-2501.7,0,0
50350.35,66.1244,-2434.55,0,0
51651.975,64.4857,-2371.06,0,0
52953.6,63.8116,-2310.74,0,0
54255.225,62.2414,-2253.93,0,0
55556.85,61.0285,-2199.3,0,0
56858.475,60.1867,-2146.87,0,0
58160.1,59.3214,-2096.54,0,0
59461.7,59.4989,-2049.05,0,0
60763.3,59.1,-2005.22,0,0
62065,56.984,-1961.91,0,0
63366.6,55.7406,-1919.02,0,0
64668.2,54.9587,-1878.58,0,0
65969.8,55.0541,-1840.07,0,0
67271.5,53.198,-1803.32,0,0
68573.1,52.0629,-1766.62,0,0
69874.7,51.4561,-1731.36,0,0
71176.3,51.2011,-1697.81,0,0
72478,50.3029,-1665.42,0,0
73779.6,49.4981,-1633.64,0,0
75081.2,48.9047,-1602.95,0,0
76382.825,48.4179,-1573.1,0,0
77684.45,48.1414,-1544.3,0,0
78986.075,47.7892,-1516.35,0,0
80287.7,47.6795,-1489.34,0,0
81589.325,47.2533,-1463.08,0,0
82890.95,47.011,-1437.43,0,0
84192.575,47.0021,-1412.29,0,0
85494.2,47.2646,-1388.28,0,0
86795.825,47.2687,-1364.81,0,0
88097.45,47.4073,-1342.31,0,0
89399.075,47.0088,-1319.93,0,0
90700.7,47.1684,-1297.69,0,0
92002.3,47.5061,-1276.01,0,0
93303.9,48.1666,-1254.96,0,0
94605.6,50.0243,-1235.13,0,0
95907.2,49.9506,-1217.18,0,0
97208.8,49.4568,-1197.74,0,0
98510.4,50.2362,-1178.31,0,0
99812.1,49.7849,-1159.69,0,0
101114,51.4015,-1140.67,0,0
102415,53.0101,-1122.53,0,0
103717,55.7442,-1105.89,0,0
105019,56.757,-1090.81,0,0
106320.175,56.0958,-1074.65,0,0
107621.8,57.2306,-1058.34,0,0
108923.425,58.3256,-1042.08,0,0
110225.05,58.8408,-1025.46,0,0
111526.675,62.0883,-1008.52,0,0
112828.3,66.5236,-992.394,0,0
114129.925,71.8754,-978.472,0,0
115431.55,77.9514,-966.149,0,0
116733.175,85.903,-957.654,0,0
118034.8,89.3601,-952.619,0,0
119336.425,91.8525,-950.277,0,0
120638.05,84.7955,-949.755,0,0
121939.675,74.2929,-939.126,0,0
123241,67.1908,-926.239,0,0
124543,62.6652,-911.443,0,0
125845,58.8071,-897.556,0,0
127146,55.4664,-882.815,0,0
128448,53.7758,-867.969,0,0
129749,52.3096,-853.439,0,0
131051,51.1051,-838.994,0,0
132353,50.39,-823.736,0,0
133654,50.8642,-808.16,0,0
134956,53.5915,-793.417,0,0
136258,58.1081,-780.34,0,0
137559,58.7235,-772.759,0,0
138860.775,56.3709,-760.512,0,0
140162.4,56.5049,-746.529,0,0
141464.025,56.3999,-733.162,0,0
142765.65,57.5289,-718.665,0,0
144067.275,60.2344,-705.27,0,0
145368.9,61.8193,-692.927,0,0
146670.525,62.9444,-679.697,0,0
147972.15,64.5559,-666.341,0,0
149273.775,65.3541,-653.324,0,0
150575.4,65.8035,-637.649,0,0
151877.025,68.0239,-620.297,0,0
153178.65,72.4744,-602.345,0,0
154480,78.5813,-584.257,0,0
155782,87.1745,-566.217,0,0
157084,98.3466,-549.014,0,0
158385,111.712,-535.256,0,0
159687,121.634,-525.912,0,0
160988,125.681,-511.774,0,0
162290,134.353,-487.698,0,0
163592,152.776,-462.399,0,0
164893,179.584,-441.748,0,0
166195,209.787,-420.166,0,0
167497,257.988,-403.248,0,0
168798,318.981,-406.929,0,0
170100,375.343,-440.611,0,0
171401.375,412.999,-495.963,0,0
172703.0,425.647,-562.72,0,0
174004.625,393.976,-626.151,0,0
175306.25,343.973,-640.808,0,0
176607.875,321.78,-628.698,0,0
177909.5,329.673,-627.508,0,0
179211.125,331.015,-664.772,0,0
180512.75,297.819,-686.243,0,0
181814.375,260.016,-699.56,0,0
183116.0,216.178,-690.535,0,0
184417.625,186.856,-668.302,0,0
185719.25,167.524,-645.665,0,0
187021,153.002,-618.424,0,0
188322,149.214,-593.357,0,0
189624,143.627,-575.682,0,0
190926,137.514,-553.173,0,0
192227,136.733,-529.17,0,0
193529,138.864,-504.423,0,0
194831,144.818,-480.112,0,0
196132,155.701,-458.854,0,0
197434,167.561,-440.816,0,0
198735,176.35,-424.085,0,0
200037,186.176,-403.346,0,0
201339,200.842,-380.359,0,0
202640.35,222.075,-355.467,0,0
203941.975,250.769,-334.436,0,0
205243.6,286.237,-315.965,0,0
206545.225,332.048,-311.2,0,0
207846.85,366.933,-318.072,0,0
209148.475,404.116,-314.227,0,0
210450.1,463.611,-326.667,0,0
211751.725,509.786,-374.897,0,0
213053.35,530.902,-427.942,0,0
214354.975,534.434,-474.513,0,0
215656.6,528.315,-515.929,0,0
216958.225,523.434,-554.271,0,0
218259.85,499.643,-592.008,0,0
219561,464.316,-616.944,0,0
220863,429.712,-617.612,0,0
222165,410.299,-606.54,0,0
223466,405.17,-598.06,0,0
224768,402.178,-594.897,0,0
226070,406.074,-587.451,0,0
227371,417.47,-591.775,0,0
228673,430.499,-604.621,0,0
229974,435.377,-627.165,0,0
231276,432.756,-657.301,0,0
232578,419.568,-686.032,0,0
233879,391.205,-715.904,0,0
235180.95,347.062,-727.023,0,0
236482.575,312.345,-715.609,0,0
237784.2,287.981,-705.863,0,0
239085.825,264.283,-687.239,0,0
240387.45,260.377,-666.639,0,0
241689.075,253.681,-661.688,0,0
242990.7,239.364,-650.76,0,0
244292.325,231.58,-631.529,0,0
245593.95,235.459,-617.605,0,0
246895.575,235.223,-610.093,0,0
248197.2,233.813,-599.842,0,0
249498.825,235.453,-588.437,0,0
250800,241.382,-577.472,0,0
252102,251.555,-569.809,0,0
253404,265.918,-569.781,0,0
254705,274.659,-579.723,0,0
256007,273.832,-590.774,0,0
257309,267.141,-597.24,0,0
258610,259.958,-597.508,0,0
259912,255.201,-597.512,0,0
261213,248.914,-593.518,0,0
262515,248.166,-585.676,0,0
263817,255.368,-582.794,0,0
265118,259.695,-588.694,0,0
266420,258.004,-592.985,0,0
267721.55,257.154,-597.529,0,0
269023.175,252.672,-600.789,0,0
270324.8,251.848,-599.548,0,0
271626.425,258.91,-602.852,0,0
272928.05,266.244,-623.825,0,0
274229.675,250.038,-652.356,0,0
275531.3,216.293,-667.254,0,0
276832.925,179.631,-660.516,0,0
278134.55,153.84,-639.44,0,0
279436.175,142.167,-615.822,0,0
280737.8,138.886,-595.489,0,0
282039.425,138.672,-582.379,0,0
283341,135.417,-569.229,0,0
284643,136.337,-553.254,0,0
285944,142.073,-540.856,0,0
287246,148.059,-533.27,0,0
288548,150.655,-527.13,0,0
289849,153.503,-518.524,0,0
291151,159.307,-509.328,0,0
292452,166.708,-503.001,0,0
293754,174.843,-497.639,0,0
295056,183.481,-493.287,0,0
296357,194.067,-490.132,0,0
297659,206.872,-489.388,0,0
298960.525,220.131,-493.102,0,0
300262.15,233.699,-499.906,0,0
301563.775,248.267,-512.118,0,0
302865.4,259.82,-535.897,0,0
304167.025,254.429,-564.77,0,0
305468.65,238.965,-585.209,0,0
306770.275,218.78,-598.237,0,0
308071.9,197.869,-603.25,0,0
309373.525,178.282,-601.971,0,0
310675.15,163.307,-595.892,0,0
311976.775,152.219,-589.765,0,0
313278.4,142.228,-583.648,0,0
314580,133.165,-575.944,0,0
315882,127.383,-566.981,0,0
317183,124.26,-559.742,0,0
318485,121.518,-554.034,0,0
319787,119.27,-548.69,0,0
321088,117.251,-544.594,0,0
322390,114.904,-540.948,0,0
323691,112.356,-537.669,0,0
324993,109.495,-533.974,0,0
326295,107.633,-530.514,0,0
327596,105.411,-528.139,0,0
328898,102.232,-525.852,0,0
330200,98.8202,-523.186,0,0
331501.125,95.2237,-520.609,0,0
332802.75,90.7688,-517.899,0,0
334104.375,85.762,-514.121,0,0
335406.0,81.0047,-509.29,0,0
336707.625,76.579,-503.641,0,0
338009.25,72.919,-497.201,0,0
339310.875,70.0786,-490.641,0,0
340612.5,67.9184,-483.765,0,0
341914.125,66.5842,-476.807,0,0
343215.75,66.2633,-469.894,0,0
344517.375,66.9381,-463.632,0,0
345819.0,67.9806,-458.576,0,0
347121,68.552,-454.505,0,0
348422,68.105,-450.562,0,0
349724,67.2945,-445.711,0,0
351025,66.8781,-440.228,0,0
352327,67.5228,-433.94,0,0
353629,69.699,-428.492,0,0
354930,72.2649,-424.363,0,0
356232,74.7013,-421.725,0,0
357534,75.2747,-419.784,0,0
358835,74.4372,-416.617,0,0
360137,74.1365,-411.73,0,0
361438,75.1934,-406.348,0,0
362740.1,77.4765,-401.514,0,0
364041.725,80.1414,-397.25,0,0
365343.35,83.5751,-393.567,0,0
366644.975,87.0305,-391.459,0,0
367946.6,89.8806,-389.79,0,0
369248.225,92.4434,-388.749,0,0
370549.85,94.133,-388.79,0,0
371851.475,93.4633,-388.339,0,0
373153.1,92.6471,-385.481,0,0
374454.725,93.2931,-381.889,0,0
375756.35,94.7381,-378.784,0,0
377057.975,95.9122,-376.232,0,0
378359.6,96.9171,-372.853,0,0
379661,99.0896,-369.297,0,0
380963,101.636,-366.389,0,0
382264,104.124,-363.644,0,0
383566,107.083,-361.003,0,0
384868,110.344,-358.817,0,0
386169,113.168,-357.156,0,0
387471,116.088,-355.182,0,0
388773,119.11,-352.709,0,0
390074,123.919,-350.348,0,0
391376,128.927,-349.793,0,0
392677,133.256,-349.738,0,0
393979,137.27,-349.656,0,0
395280.7,141.892,-348.849,0,0
396582.325,148.52,-348.486,0,0
397883.95,157.023,-350.656,0,0
399185.575,165.712,-356.932,0,0
400006.6,169.865,-363.365,0,0