File: Accelerated corrosion test data/2025-10-15_18-00-03/sample_4.csv
Frequency (Hz),Impedance (ohms),Phase (Radians),Temperature (C),Humidity (%)
10000.0,263.044,-11902.5,0,0
11301.625,233.872,-10544.9,0,0
12603.25,212.714,-9459.82,0,0
13904.875,192.752,-8577.45,0,0
15206.5,180.57,-7850.66,0,0
16508.125,192.037,-7235.23,0,0
17809.75,155.353,-6726.57,0,0
19111.375,144.966,-6268.09,0,0
20413.0,140.229,-5866.44,0,0
21714.625,146.166,-5520.87,0,0
23016.25,124.838,-5219.91,0,0
24317.875,115.887,-4934.04,0,0
25619.5,111.721,-4680.42,0,0
26921.1,105.938,-4450.7,0,0
28222.7,119.368,-4247.8,0,0
29524.4,112.04,-4067.56,0,0
30826,98.336,-3895.38,0,0
32127.6,99.686,-3734.35,0,0
33429.2,89.5768,-3593.36,0,0
34730.9,84.5897,-3454.57,0,0
36032.5,81.4342,-3326.84,0,0
37334.1,79.4244,-3207.63,0,0
38635.7,76.8969,-3095.35,0,0
39937.4,76.8904,-2989.2,0,0
41239,79.5238,-2895.03,0,0
42540.6,78.321,-2806.25,0,0
43842.225,73.181,-2722.89,0,0
45143.85,71.0425,-2641.74,0,0
46445.475,69.9603,-2564.26,0,0
47747.1,70.0809,-2494.43,0,0
49048.725,65.9344,-2424.82,0,0
50350.35,64.3086,-2357.31,0,0
51651.975,63.7179,-2292.49,0,0
52953.6,65.2005,-2229.53,0,0
54255.225,73.6774,-2173.05,0,0
55556.85,71.7932,-2129.78,0,0
56858.475,65.4081,-2075.6,0,0
58160.1,66.5148,-2023.12,0,0
59461.7,70.7625,-1972.76,0,0
60763.3,79.7839,-1934.12,0,0
62065,69.8675,-1901.26,0,0
63366.6,64.164,-1855.73,0,0
64668.2,64.4222,-1812.12,0,0
65969.8,66.3414,-1771.36,0,0
67271.5,70.3935,-1735.3,0,0
68573.1,73.717,-1706.37,0,0
69874.7,66.3099,-1676.11,0,0
71176.3,64.7051,-1641.73,0,0
72478,59.216,-1610.29,0,0
73779.6,57.7389,-1573.91,0,0
75081.2,59.7482,-1540.92,0,0
76382.825,62.2421,-1511.95,0,0
77684.45,65.0239,-1484.25,0,0
78986.075,63.7953,-1461.75,0,0
80287.7,60.8663,-1434.74,0,0
81589.325,60.3208,-1408.78,0,0
82890.95,59.0379,-1383.64,0,0
84192.575,57.8264,-1358.71,0,0
85494.2,57.0081,-1334.38,0,0
86795.825,56.2996,-1310.72,0,0
88097.45,54.8552,-1288.05,0,0
89399.075,53.4744,-1263.73,0,0
90700.7,53.3918,-1240.49,0,0
92002.3,53.6783,-1217.31,0,0
93303.9,54.8769,-1196.41,0,0
94605.6,53.5255,-1176.05,0,0
95907.2,52.9719,-1153.48,0,0
97208.8,53.8189,-1131.7,0,0
98510.4,55.175,-1110.1,0,0
99812.1,57.7607,-1089.28,0,0
101114,62.0927,-1070.84,0,0
102415,61.2647,-1056.36,0,0
103717,58.4094,-1033.51,0,0
105019,62.1741,-1009.86,0,0
106320.175,68.8236,-989.371,0,0
107621.8,75.7526,-971.469,0,0
108923.425,84.2465,-954.829,0,0
110225.05,92.5613,-942.391,0,0
111526.675,98.6547,-931.866,0,0
112828.3,103.512,-922.147,0,0
114129.925,106.73,-913.515,0,0
115431.55,108.468,-905.22,0,0
116733.175,107.89,-896.752,0,0
118034.8,105.683,-885.906,0,0
119336.425,106.507,-871.744,0,0
120638.05,111.786,-866.528,0,0
121939.675,104.759,-860.206,0,0
123241,100.008,-847.764,0,0
124543,96.8663,-835.005,0,0
125845,94.9881,-822.743,0,0
127146,91.6117,-811.62,0,0
128448,86.7514,-799.992,0,0
129749,80.1378,-785.215,0,0
131051,75.33,-767.319,0,0
132353,72.8078,-748.532,0,0
133654,72.1081,-729.645,0,0
134956,72.7624,-710.783,0,0
136258,74.8205,-692.284,0,0
137559,77.434,-675.006,0,0
138860.775,79.3424,-656.959,0,0
140162.4,82.7399,-637.953,0,0
141464.025,87.7607,-618.958,0,0
142765.65,93.7039,-600.629,0,0
144067.275,100.312,-582.266,0,0
145368.9,108.103,-563.471,0,0
146670.525,117.713,-544.84,0,0
147972.15,128.534,-526.853,0,0
149273.775,141.011,-508.973,0,0
150575.4,155.759,-490.797,0,0
151877.025,174.48,-474.318,0,0
153178.65,196.781,-462.295,0,0
154480,218.419,-457.121,0,0
155782,235.381,-453.441,0,0
157084,250.344,-451.051,0,0
158385,265.615,-445.301,0,0
159687,286.971,-443.037,0,0
160988,303.494,-450.947,0,0
162290,310.705,-455.932,0,0
163592,315.974,-455.891,0,0
164893,324.388,-449.836,0,0
166195,339.722,-442.197,0,0
167497,366.719,-441.391,0,0
168798,393.016,-456.96,0,0
170100,411.248,-485.588,0,0
171401.375,407.852,-523.771,0,0
172703.0,383.498,-550.078,0,0
174004.625,350.071,-555.768,0,0
175306.25,322.145,-544.789,0,0
176607.875,304.006,-522.898,0,0
177909.5,297.501,-499.383,0,0
179211.125,296.857,-478.133,0,0
180512.75,300.659,-459.294,0,0
181814.375,304.679,-442.802,0,0
183116.0,307.779,-425.607,0,0
184417.625,312.09,-404.662,0,0
185719.25,320.531,-380.976,0,0
187021,333.077,-355.765,0,0
188322,351.097,-328.558,0,0
189624,376.196,-300.848,0,0
190926,410.044,-274.585,0,0
192227,452.645,-252.404,0,0
193529,503.416,-238.154,0,0
194831,558.964,-233.251,0,0
196132,618.252,-235.993,0,0
197434,685.052,-248.834,0,0
198735,757.658,-279.904,0,0
200037,828.133,-337.825,0,0
201339,877.275,-420.144,0,0
202640.35,896.392,-509.562,0,0
203941.975,895.967,-593.542,0,0
205243.6,874.958,-670.047,0,0
206545.225,846.031,-734.627,0,0
207846.85,806.301,-798.682,0,0
209148.475,747.082,-844.101,0,0
210450.1,688.695,-865.265,0,0
211751.725,638.311,-871.348,0,0
213053.35,599.973,-869.407,0,0
214354.975,571.132,-862.435,0,0
215656.6,555.517,-862.761,0,0
216958.225,534.323,-870.62,0,0
218259.85,512.802,-874.687,0,0
219561,492.204,-879.623,0,0
220863,469.06,-885.181,0,0
222165,445.367,-887.381,0,0
223466,422.476,-887.755,0,0
224768,400.41,-888.903,0,0
226070,374.652,-889.809,0,0
227371,346.488,-886.003,0,0
228673,317.903,-876.131,0,0
229974,293.947,-860.062,0,0
231276,275.261,-842.351,0,0
232578,260.768,-824.433,0,0
233879,249.972,-807.052,0,0
235180.95,241.907,-790.827,0,0
236482.575,235.205,-776.414,0,0
237784.2,230.065,-761.402,0,0
239085.825,228.415,-748.476,0,0
240387.45,227.355,-738.688,0,0
241689.075,225.658,-731.038,0,0
242990.7,222.541,-725.03,0,0
244292.325,217.448,-719.097,0,0
245593.95,210.778,-711.114,0,0
246895.575,205.507,-701.09,0,0
248197.2,202.619,-690.993,0,0
249498.825,200,-681.921,0,0
250800,197.977,-673.897,0,0
252102,193.873,-666.669,0,0
253404,187.834,-656.243,0,0
254705,183.893,-642.827,0,0
256007,181.758,-626.301,0,0
257309,185.102,-607.678,0,0
258610,194.173,-589.86,0,0
259912,209.695,-575.596,0,0
261213,227.897,-566.299,0,0
262515,248.293,-563.576,0,0
263817,270.223,-567.485,0,0
265118,287.938,-580.474,0,0
266420,300.08,-597.057,0,0
267721.55,306.716,-617.709,0,0
269023.175,303.733,-641.607,0,0
270324.8,289.193,-657.367,0,0
271626.425,277.964,-665.039,0,0
272928.05,268.186,-673.373,0,0
274229.675,255.463,-682.15,0,0
275531.3,237.242,-688.565,0,0
276832.925,216.659,-687.762,0,0
278134.55,196.968,-677.859,0,0
279436.175,186.733,-661.493,0,0
280737.8,185.717,-649.96,0,0
282039.425,183.376,-643.182,0,0
283341,183.265,-635.855,0,0
284643,182.741,-633.738,0,0
285944,178.515,-631.972,0,0
287246,171.997,-626.506,0,0
288548,166.54,-617.065,0,0
289849,167.985,-603.21,0,0
291151,177.881,-594.343,0,0
292452,190.388,-594.14,0,0
293754,199.054,-602.907,0,0
295056,199.797,-615.479,0,0
296357,191.763,-626.357,0,0
297659,180.06,-630.237,0,0
298960.525,170.076,-629.745,0,0
300262.15,161.51,-628.239,0,0
301563.775,153.058,-625.467,0,0
302865.4,145.646,-621.381,0,0
304167.025,138.714,-616.456,0,0
305468.65,133.186,-610.399,0,0
306770.275,129.172,-604.218,0,0
308071.9,126.873,-598.635,0,0
309373.525,125.157,-594.724,0,0
310675.15,122.181,-591.732,0,0
311976.775,118.558,-587.714,0,0
313278.4,115.627,-583.081,0,0
314580,113.776,-578.481,0,0
315882,112.461,-574.747,0,0
317183,111.295,-571.855,0,0
318485,109.677,-569.801,0,0
319787,107.539,-568.752,0,0
321088,103.396,-567.893,0,0
322390,97.1653,-566.166,0,0
323691,90.2026,-561.099,0,0
324993,85.6142,-554.028,0,0
326295,82.6259,-547.352,0,0
327596,79.8729,-540.687,0,0
328898,78.1625,-533.47,0,0
330200,77.8892,-526.31,0,0
331501.125,79.0841,-520.352,0,0
332802.75,80.5962,-516.265,0,0
334104.375,80.7587,-513.493,0,0
335406.0,79.5104,-510.556,0,0
336707.625,77.2735,-506.359,0,0
338009.25,75.8319,-500.671,0,0
339310.875,75.4814,-494.474,0,0
340612.5,76.5828,-487.93,0,0
341914.125,79.6572,-482.055,0,0
343215.75,84.1553,-478.482,0,0
344517.375,87.9377,-477.668,0,0
345819.0,89.7715,-478.13,0,0
347121,89.6897,-478.598,0,0
348422,88.3902,-478.369,0,0
349724,86.4017,-476.98,0,0
351025,84.3398,-474.814,0,0
352327,82.4105,-471.763,0,0
353629,81.3578,-467.715,0,0
354930,81.5242,-464.503,0,0
356232,81.4073,-461.945,0,0
357534,80.9049,-459.523,0,0
358835,79.7715,-456.795,0,0
360137,78.7297,-453.252,0,0
361438,78.309,-449.072,0,0
362740.1,78.991,-445.171,0,0
364041.725,79.612,-442.075,0,0
365343.35,79.7213,-438.89,0,0
366644.975,79.9501,-434.541,0,0
367946.6,81.6123,-429.775,0,0
369248.225,84.7059,-425.474,0,0
370549.85,88.9664,-422.225,0,0
371851.475,94.4152,-420.861,0,0
373153.1,99.4048,-422.508,0,0
374454.725,101.733,-426.232,0,0
375756.35,101.11,-428.911,0,0
377057.975,100.076,-430.144,0,0
378359.6,99.0857,-430.947,0,0
379661,97.6157,-431.543,0,0
380963,95.8646,-431.421,0,0
382264,95.0573,-430.125,0,0
383566,95.831,-430.985,0,0
384868,93.8956,-434.007,0,0
386169,88.9774,-435.54,0,0
387471,83.1137,-433.839,0,0
388773,79.1305,-429.425,0,0
390074,78.3391,-424.791,0,0
391376,79.3504,-423.094,0,0
392677,78.0274,-424.032,0,0
393979,73.774,-423.662,0,0
395280.7,69.2285,-420.783,0,0
396582.325,65.8828,-416.532,0,0
397883.95,63.4064,-412.08,0,0
399185.575,61.4847,-407.322,0,0
400006.6,60.6403,-404.076,0,0