File: Accelerated corrosion test data/2025-10-15_18-00-03/sample_3.csv
Frequency (Hz),Impedance (ohms),Phase (Radians),Temperature (C),Humidity (%)
10000.0,250.992,-11860.4,0,0
11301.625,223.63,-10505.6,0,0
12603.25,202.716,-9428.72,0,0
13904.875,185.717,-8550.2,0,0
15206.5,173.015,-7815.17,0,0
16508.125,161.282,-7217.16,0,0
17809.75,157.237,-6685.06,0,0
19111.375,146.36,-6232.42,0,0
20413.0,160.941,-5826.53,0,0
21714.625,138.438,-5505.4,0,0
23016.25,128.077,-5198.22,0,0
24317.875,119.257,-4917.56,0,0
25619.5,113.761,-4668.72,0,0
26921.1,108.396,-4437.26,0,0
28222.7,103.909,-4228.67,0,0
29524.4,108.761,-4050.95,0,0
30826,101.285,-3878.23,0,0
32127.6,101.572,-3712.12,0,0
33429.2,99.1566,-3587.45,0,0
34730.9,87.9998,-3448.8,0,0
36032.5,83.2283,-3319.77,0,0
37334.1,80.042,-3201.4,0,0
38635.7,77.95,-3090.68,0,0
39937.4,75.5604,-2987.63,0,0
41239,74.336,-2890.19,0,0
42540.6,72.9277,-2800.03,0,0
43842.225,71.7422,-2713.7,0,0
45143.85,70.976,-2633.93,0,0
46445.475,69.5834,-2557.64,0,0
47747.1,69.9161,-2484.52,0,0
49048.725,68.5013,-2418.72,0,0
50350.35,66.6088,-2353.14,0,0
51651.975,66.1659,-2289.97,0,0
52953.6,66.4378,-2229.94,0,0
54255.225,69.4269,-2174.59,0,0
55556.85,66.6858,-2127.03,0,0
56858.475,61.7233,-2073.88,0,0
58160.1,61.224,-2021.51,0,0
59461.7,61.6137,-1972.07,0,0
60763.3,63.0938,-1925.13,0,0
62065,64.942,-1880.07,0,0
63366.6,69.0126,-1836.28,0,0
64668.2,77.9605,-1794.1,0,0
65969.8,92.1619,-1768.79,0,0
67271.5,75.8138,-1743.28,0,0
68573.1,76.2911,-1705.55,0,0
69874.7,76.0771,-1676.06,0,0
71176.3,70.8412,-1645.37,0,0
72478,69.6772,-1612.55,0,0
73779.6,68.0709,-1584.06,0,0
75081.2,64.4127,-1555.75,0,0
76382.825,60.8234,-1526.38,0,0
77684.45,58.2855,-1497.27,0,0
78986.075,56.0689,-1468.65,0,0
80287.7,54.489,-1440.39,0,0
81589.325,53.4245,-1413.01,0,0
82890.95,52.8677,-1386.46,0,0
84192.575,52.6045,-1360.63,0,0
85494.2,52.4931,-1335.49,0,0
86795.825,52.6806,-1311.05,0,0
88097.45,53.2209,-1287,0,0
89399.075,54.4503,-1263.21,0,0
90700.7,56.8145,-1241.35,0,0
92002.3,59.0925,-1220.61,0,0
93303.9,61.9721,-1201.61,0,0
94605.6,62.5905,-1186.97,0,0
95907.2,57.5439,-1169,0,0
97208.8,56.2645,-1147.61,0,0
98510.4,56.0247,-1127.86,0,0
99812.1,55.5563,-1108.73,0,0
101114,55.1566,-1088.84,0,0
102415,56.5457,-1068.21,0,0
103717,60.5111,-1050.57,0,0
105019,63.6142,-1036.24,0,0
106320.175,63.0463,-1022.31,0,0
107621.8,61.0071,-1006.62,0,0
108923.425,59.191,-989.078,0,0
110225.05,59.2626,-970.494,0,0
111526.675,61.4052,-952.553,0,0
112828.3,63.6693,-936.422,0,0
114129.925,65.2043,-920.413,0,0
115431.55,67.3113,-903.427,0,0
116733.175,70.9891,-886.715,0,0
118034.8,77.0252,-870.702,0,0
119336.425,83.5109,-858.704,0,0
120638.05,89.8269,-852.598,0,0
121939.675,86.7512,-844.149,0,0
123241,87.1997,-830.629,0,0
124543,88.8263,-819.237,0,0
125845,90.3043,-808.756,0,0
127146,89.7226,-798.979,0,0
128448,88.1334,-788.185,0,0
129749,86.689,-775.265,0,0
131051,87.7253,-762.328,0,0
132353,87.1143,-751.307,0,0
133654,86.3021,-739.54,0,0
134956,84.6966,-726.829,0,0
136258,83.2345,-713.463,0,0
137559,82.8415,-698.158,0,0
138860.775,84.1361,-684.363,0,0
140162.4,83.4767,-670.963,0,0
141464.025,82.9582,-656.658,0,0
142765.65,82.2269,-640.612,0,0
144067.275,82.5681,-623.345,0,0
145368.9,84.2758,-605.175,0,0
146670.525,86.9258,-586.296,0,0
147972.15,91.2415,-566.246,0,0
149273.775,97.8014,-545.894,0,0
150575.4,108.449,-525.667,0,0
151877.025,121.216,-508.662,0,0
153178.65,133.591,-495.214,0,0
154480,143.606,-483.058,0,0
155782,151.988,-466.565,0,0
157084,163.875,-449.139,0,0
158385,180.286,-438.016,0,0
159687,184.644,-423.502,0,0
160988,200.136,-395.992,0,0
162290,225.972,-370.511,0,0
163592,260.635,-348.504,0,0
164893,310.262,-336.955,0,0
166195,362.006,-349.633,0,0
167497,401.415,-381.101,0,0
168798,423.497,-418.145,0,0
170100,421.949,-460.475,0,0
171401.375,406.23,-475.235,0,0
172703.0,403.223,-476.528,0,0
174004.625,411.833,-487.576,0,0
175306.25,413.229,-504.034,0,0
176607.875,411.538,-521.881,0,0
177909.5,389.743,-539.958,0,0
179211.125,366.775,-532.17,0,0
180512.75,362.239,-518.975,0,0
181814.375,367.318,-515.724,0,0
183116.0,360.389,-521.956,0,0
184417.625,345.289,-519.663,0,0
185719.25,331.101,-505.913,0,0
187021,326.669,-483.332,0,0
188322,333.037,-465.639,0,0
189624,337.536,-450.794,0,0
190926,347.606,-436.593,0,0
192227,356.205,-423.289,0,0
193529,367.205,-403.94,0,0
194831,391.072,-386.931,0,0
196132,423.487,-380.688,0,0
197434,446.824,-392.376,0,0
198735,460.804,-398.68,0,0
200037,470.586,-404.489,0,0
201339,476.42,-398.635,0,0
202640.35,497.092,-389.041,0,0
203941.975,527.132,-389.401,0,0
205243.6,555.29,-403.061,0,0
206545.225,567.586,-418.214,0,0
207846.85,587.825,-417.68,0,0
209148.475,620.5,-427.234,0,0
210450.1,653.31,-449.933,0,0
211751.725,679.827,-482.236,0,0
213053.35,701.024,-517.157,0,0
214354.975,715.493,-560.033,0,0
215656.6,722.609,-605.859,0,0
216958.225,719.245,-652.04,0,0
218259.85,706.78,-696.104,0,0
219561,688.251,-733.116,0,0
220863,668.974,-771.019,0,0
222165,639.573,-809.961,0,0
223466,593.187,-836.51,0,0
224768,551.821,-838.166,0,0
226070,530.707,-836.776,0,0
227371,512.62,-846.029,0,0
228673,486.797,-858.058,0,0
229974,459.722,-863.969,0,0
231276,431.703,-867.455,0,0
232578,404.424,-866.376,0,0
233879,379.591,-862.973,0,0
235180.95,356.416,-858.544,0,0
236482.575,331.826,-853.803,0,0
237784.2,307.148,-845.274,0,0
239085.825,283.1,-830.653,0,0
240387.45,265.822,-813.473,0,0
241689.075,251.22,-795.728,0,0
242990.7,242.412,-777.217,0,0
244292.325,237.892,-762.396,0,0
245593.95,232.362,-750.869,0,0
246895.575,227.125,-738.719,0,0
248197.2,222.994,-727.08,0,0
249498.825,222.386,-716.278,0,0
250800,220.163,-710.787,0,0
252102,213.484,-704.394,0,0
253404,205.389,-693.433,0,0
254705,200.704,-678.265,0,0
256007,201.382,-661.693,0,0
257309,208.931,-648.191,0,0
258610,216.244,-639.371,0,0
259912,227.903,-630.843,0,0
261213,244.11,-631.576,0,0
262515,254.156,-644.556,0,0
263817,251.957,-659.291,0,0
265118,241.191,-669.535,0,0
266420,226.759,-672.391,0,0
267721.55,212.775,-667.766,0,0
269023.175,203.642,-658.716,0,0
270324.8,198.062,-648.984,0,0
271626.425,196.766,-639.353,0,0
272928.05,196.711,-633.088,0,0
274229.675,196.276,-624.783,0,0
275531.3,200.262,-617.113,0,0
276832.925,207.593,-612.998,0,0
278134.55,215.133,-615.144,0,0
279436.175,218.664,-622.018,0,0
280737.8,216.234,-630.346,0,0
282039.425,209.16,-635.756,0,0
283341,200.13,-637.655,0,0
284643,190.8,-636.112,0,0
285944,182.426,-631.541,0,0
287246,176.698,-624.609,0,0
288548,174.937,-617.784,0,0
289849,174.479,-613.815,0,0
291151,173.25,-611.287,0,0
292452,170.35,-608.384,0,0
293754,168.791,-603.108,0,0
295056,170.672,-599.12,0,0
296357,173.43,-598.92,0,0
297659,173.849,-601.868,0,0
298960.525,170.75,-605.103,0,0
300262.15,165.618,-607.108,0,0
301563.775,159.079,-607.551,0,0
302865.4,152.067,-605.811,0,0
304167.025,145.788,-602.615,0,0
305468.65,140.228,-598.077,0,0
306770.275,136.311,-592.981,0,0
308071.9,133.85,-588.335,0,0
309373.525,131.736,-585.013,0,0
310675.15,129.015,-582.434,0,0
311976.775,124.907,-579.756,0,0
313278.4,120.242,-575.388,0,0
314580,116.517,-569.286,0,0
315882,115.284,-562.451,0,0
317183,116.008,-557.265,0,0
318485,116.447,-553.82,0,0
319787,116.482,-550.755,0,0
321088,116.751,-547.869,0,0
322390,117.816,-545.923,0,0
323691,118.318,-545.848,0,0
324993,117.147,-546.973,0,0
326295,113.68,-547.592,0,0
327596,109.266,-546.833,0,0
328898,104.647,-544.942,0,0
330200,100.447,-542.212,0,0
331501.125,96.1807,-539.189,0,0
332802.75,91.83,-535.501,0,0
334104.375,87.4734,-531.072,0,0
335406.0,83.6853,-525.586,0,0
336707.625,80.7964,-519.508,0,0
338009.25,78.8306,-513.261,0,0
339310.875,77.6008,-506.671,0,0
340612.5,77.7352,-499.773,0,0
341914.125,79.6737,-493.867,0,0
343215.75,82.4386,-489.922,0,0
344517.375,84.3372,-488.016,0,0
345819.0,84.5386,-486.323,0,0
347121,84.2244,-484.071,0,0
348422,83.4616,-481.655,0,0
349724,82.8919,-478.041,0,0
351025,83.8777,-474.352,0,0
352327,85.6731,-472.524,0,0
353629,85.8745,-472.238,0,0
354930,84.3782,-471.239,0,0
356232,82.7407,-469.266,0,0
357534,80.8839,-466.54,0,0
358835,79.8061,-462.92,0,0
360137,79.7197,-459.522,0,0
361438,79.6068,-456.782,0,0
362740.1,79.2826,-453.798,0,0
364041.725,79.9477,-450.396,0,0
365343.35,81.4772,-448.421,0,0
366644.975,81.9651,-448.19,0,0
367946.6,80.3106,-447.553,0,0
369248.225,77.7522,-445.072,0,0
370549.85,77.2602,-440.546,0,0
371851.475,78.9198,-437.955,0,0
373153.1,79.1864,-437.655,0,0
374454.725,77.3682,-436.441,0,0
375756.35,75.4409,-433.632,0,0
377057.975,74.6662,-429.81,0,0
378359.6,75.0785,-426.374,0,0
379661,76.0039,-423.704,0,0
380963,76.8134,-422.082,0,0
382264,76.8283,-420.633,0,0
383566,76.7416,-419.188,0,0
384868,75.8632,-417.909,0,0
386169,74.5867,-415.947,0,0
387471,73.2282,-413.412,0,0
388773,72.005,-410.074,0,0
390074,71.5885,-406.047,0,0
391376,72.2397,-401.824,0,0
392677,74.2491,-398.141,0,0
393979,76.7827,-395.85,0,0
395280.7,79.0254,-394.605,0,0
396582.325,80.9127,-394.168,0,0
397883.95,81.9821,-394.548,0,0
399185.575,81.9074,-394.97,0,0
400006.6,81.4871,-395.076,0,0