File: Accelerated corrosion test data/2025-10-13_18-00-03/sample_6.csv
Frequency (Hz),Impedance (ohms),Phase (Radians),Temperature (C),Humidity (%)
10000.0,4158.02,-6603.47,0,0
11301.625,3532.81,-6207.55,0,0
12603.25,3036.46,-5830.81,0,0
13904.875,2636.63,-5489.26,0,0
15206.5,2309.54,-5171.45,0,0
16508.125,2040.23,-4882.04,0,0
17809.75,1816.46,-4617.75,0,0
19111.375,1628.73,-4375.6,0,0
20413.0,1469.1,-4158.27,0,0
21714.625,1332.28,-3956.71,0,0
23016.25,1216.03,-3770.25,0,0
24317.875,1113.17,-3604.77,0,0
25619.5,1024.21,-3449.07,0,0
26921.1,945.688,-3304.56,0,0
28222.7,877.332,-3172.76,0,0
29524.4,814.922,-3046.63,0,0
30826,762.988,-2931.28,0,0
32127.6,716.002,-2823.71,0,0
33429.2,676.986,-2727.18,0,0
34730.9,633.657,-2635.89,0,0
36032.5,595.367,-2550.59,0,0
37334.1,562.23,-2464.28,0,0
38635.7,532.503,-2384.22,0,0
39937.4,510.42,-2308.5,0,0
41239,489.303,-2243.35,0,0
42540.6,464.135,-2181.49,0,0
43842.225,443.671,-2115.7,0,0
45143.85,428.408,-2056.49,0,0
46445.475,414.467,-2003.96,0,0
47747.1,400.177,-1953.64,0,0
49048.725,388.306,-1908.2,0,0
50350.35,370.197,-1868.88,0,0
51651.975,350.96,-1823.68,0,0
52953.6,335.559,-1778.75,0,0
54255.225,320.389,-1735.49,0,0
55556.85,309.36,-1694.92,0,0
56858.475,297.673,-1652.81,0,0
58160.1,292.503,-1616.4,0,0
59461.7,283.115,-1584.9,0,0
60763.3,271.763,-1552.58,0,0
62065,258.292,-1518.11,0,0
63366.6,254.295,-1481.44,0,0
64668.2,247.484,-1455.55,0,0
65969.8,238.698,-1424.6,0,0
67271.5,232.447,-1396.46,0,0
68573.1,225.475,-1369.31,0,0
69874.7,218.45,-1342.94,0,0
71176.3,211.09,-1316.96,0,0
72478,204.534,-1290.43,0,0
73779.6,199.05,-1264.87,0,0
75081.2,194.303,-1240.62,0,0
76382.825,189.108,-1217.37,0,0
77684.45,183.899,-1194.25,0,0
78986.075,179.068,-1171.4,0,0
80287.7,174.477,-1148.79,0,0
81589.325,170.345,-1126.19,0,0
82890.95,167.108,-1103.84,0,0
84192.575,164.506,-1081.7,0,0
85494.2,163.528,-1060.07,0,0
86795.825,163.402,-1040.25,0,0
88097.45,163.267,-1021.37,0,0
89399.075,164.149,-1003.62,0,0
90700.7,164.969,-989.178,0,0
92002.3,161.699,-975.617,0,0
93303.9,158.41,-958.455,0,0
94605.6,157.596,-940.916,0,0
95907.2,158.11,-925.323,0,0
97208.8,157.716,-912.441,0,0
98510.4,155.465,-897.917,0,0
99812.1,156.126,-883.46,0,0
101114,156.206,-872.333,0,0
102415,154.09,-861.132,0,0
103717,151.372,-850.962,0,0
105019,144.749,-840.897,0,0
106320.175,135.451,-824.999,0,0
107621.8,131.429,-804.122,0,0
108923.425,132.811,-785.251,0,0
110225.05,135.491,-768.266,0,0
111526.675,140.637,-753.206,0,0
112828.3,145.617,-743.766,0,0
114129.925,146.745,-735.119,0,0
115431.55,148.292,-725.209,0,0
116733.175,148.494,-720.803,0,0
118034.8,140.062,-711.925,0,0
119336.425,135.477,-696.162,0,0
120638.05,136.835,-680.016,0,0
121939.675,139.404,-670.502,0,0
123241,137.655,-659.594,0,0
124543,137.295,-648.548,0,0
125845,135.954,-637.321,0,0
127146,134.308,-624.847,0,0
128448,134.113,-610.923,0,0
129749,135.88,-598.148,0,0
131051,136.982,-586.003,0,0
132353,138.746,-573.348,0,0
133654,141.637,-561.376,0,0
134956,144.473,-550.133,0,0
136258,147.422,-538.972,0,0
137559,151.477,-528.668,0,0
138860.775,154.592,-520.364,0,0
140162.4,156.21,-511.487,0,0
141464.025,158.514,-502.279,0,0
142765.65,159.061,-494.163,0,0
144067.275,159.016,-483.372,0,0
145368.9,160.893,-471.741,0,0
146670.525,163.404,-461.782,0,0
147972.15,163.79,-452.309,0,0
149273.775,163.436,-439.626,0,0
150575.4,165.333,-425.437,0,0
151877.025,168.768,-410.554,0,0
153178.65,176.106,-396.726,0,0
154480,182.04,-385.99,0,0
155782,187.695,-373.124,0,0
157084,196.349,-362.617,0,0
158385,201.604,-354.16,0,0
159687,206.246,-343.767,0,0
160988,210.871,-332.69,0,0
162290,215.769,-320.904,0,0
163592,221.267,-308.199,0,0
164893,226.407,-295.499,0,0
166195,232.155,-280.728,0,0
167497,238.974,-264.947,0,0
168798,247.459,-247.934,0,0
170100,257.215,-230.683,0,0
171401.375,267.888,-212.146,0,0
172703.0,280.43,-191.866,0,0
174004.625,295.526,-169.901,0,0
175306.25,314.492,-146.083,0,0
176607.875,338.519,-121.685,0,0
177909.5,368.327,-98.0962,0,0
179211.125,403.981,-77.0365,0,0
180512.75,443.842,-61.4122,0,0
181814.375,484.836,-48.4661,0,0
183116.0,529.612,-38.4254,0,0
184417.625,575.934,-30.2131,0,0
185719.25,628.161,-21.0781,0,0
187021,692.234,-15.3791,0,0
188322,767.219,-20.5259,0,0
189624,851.817,-40.5968,0,0
190926,942.045,-83.2901,0,0
192227,1027.1,-151.708,0,0
193529,1099.47,-242.265,0,0
194831,1154.1,-353.783,0,0
196132,1180.68,-481.939,0,0
197434,1172.12,-615.172,0,0
198735,1129.88,-737.824,0,0
200037,1064.3,-841.001,0,0
201339,981.928,-922.24,0,0
202640.35,890.42,-977.699,0,0
203941.975,801.024,-1008.94,0,0
205243.6,719.074,-1022.56,0,0
206545.225,644.956,-1024.41,0,0
207846.85,580.223,-1017.4,0,0
209148.475,523.467,-1004.49,0,0
210450.1,474.049,-988.517,0,0
211751.725,430.039,-969.995,0,0
213053.35,392.047,-948.812,0,0
214354.975,358.8,-927.062,0,0
215656.6,329.941,-904.052,0,0
216958.225,305.794,-881.185,0,0
218259.85,284.791,-858.722,0,0
219561,266.907,-836.424,0,0
220863,251.743,-814.578,0,0
222165,239.099,-793.087,0,0
223466,229.076,-772.313,0,0
224768,221.402,-751.788,0,0
226070,216.177,-732.993,0,0
227371,212.384,-715.853,0,0
228673,208.973,-699.693,0,0
229974,206.481,-683.644,0,0
231276,205.447,-667.811,0,0
232578,206.073,-652.395,0,0
233879,208.491,-637.672,0,0
235180.95,212.934,-623.972,0,0
236482.575,219.111,-611.854,0,0
237784.2,226.92,-601.603,0,0
239085.825,236.033,-593.686,0,0
240387.45,245.992,-588.194,0,0
241689.075,256.246,-585.643,0,0
242990.7,266.257,-585.49,0,0
244292.325,276.628,-588.169,0,0
245593.95,284.969,-595.635,0,0
246895.575,288.61,-604.735,0,0
248197.2,289.537,-612.921,0,0
249498.825,288.841,-619.911,0,0
250800,289.414,-626.885,0,0
252102,288.805,-636.938,0,0
253404,285.361,-648.662,0,0
254705,277.06,-660.899,0,0
256007,264.381,-670.581,0,0
257309,249.849,-676.074,0,0
258610,235.267,-678.359,0,0
259912,221.311,-678.317,0,0
261213,208.052,-676.283,0,0
262515,195.79,-672.671,0,0
263817,184.755,-667.97,0,0
265118,174.722,-662.628,0,0
266420,165.977,-656.878,0,0
267721.55,157.88,-651.097,0,0
269023.175,150.455,-645.109,0,0
270324.8,143.58,-639.018,0,0
271626.425,137.182,-632.736,0,0
272928.05,131.31,-626.342,0,0
274229.675,125.977,-619.993,0,0
275531.3,120.967,-613.72,0,0
276832.925,116.381,-607.369,0,0
278134.55,112.125,-600.934,0,0
279436.175,108.321,-594.201,0,0
280737.8,105.559,-587.437,0,0
282039.425,103.481,-581.676,0,0
283341,101.086,-576.354,0,0
284643,98.8068,-570.934,0,0
285944,97.2283,-565.798,0,0
287246,95.5305,-561.508,0,0
288548,93.2443,-557.509,0,0
289849,90.8944,-553.027,0,0
291151,88.8245,-548.645,0,0
292452,86.7694,-544.499,0,0
293754,84.4682,-540.38,0,0
295056,81.8881,-536.112,0,0
296357,79.3895,-531.358,0,0
297659,77.5739,-526.081,0,0
298960.525,76.6717,-521.342,0,0
300262.15,75.524,-517.395,0,0
301563.775,74.0285,-513.401,0,0
302865.4,72.6258,-509.298,0,0
304167.025,71.4205,-505.086,0,0
305468.65,70.3932,-501.117,0,0
306770.275,69.3625,-497.497,0,0
308071.9,68.0816,-493.847,0,0
309373.525,67.0154,-490.136,0,0
310675.15,65.8724,-486.379,0,0
311976.775,64.8547,-482.823,0,0
313278.4,63.7377,-479.22,0,0
314580,62.6894,-475.626,0,0
315882,61.7245,-472.099,0,0
317183,60.8423,-468.545,0,0
318485,59.8511,-465.024,0,0
319787,59.0135,-461.572,0,0
321088,58.2597,-458.064,0,0
322390,57.5287,-454.631,0,0
323691,56.8873,-451.385,0,0
324993,56.1439,-448.167,0,0
326295,55.4216,-444.907,0,0
327596,54.7116,-441.59,0,0
328898,54.0349,-438.307,0,0
330200,53.4622,-434.975,0,0
331501.125,52.9945,-431.662,0,0
332802.75,52.5517,-428.415,0,0
334104.375,52.147,-425.289,0,0
335406.0,51.7645,-422.167,0,0
336707.625,51.466,-419.115,0,0
338009.25,51.1169,-416.117,0,0
339310.875,50.828,-413.07,0,0
340612.5,50.595,-410.052,0,0
341914.125,50.3966,-406.979,0,0
343215.75,50.4241,-404.068,0,0
344517.375,50.3358,-401.321,0,0
345819.0,50.1175,-398.608,0,0
347121,50.072,-395.748,0,0
348422,50.0686,-392.937,0,0
349724,50.1813,-390.232,0,0
351025,50.3338,-387.682,0,0
352327,50.4529,-385.218,0,0
353629,50.6038,-382.857,0,0
354930,50.611,-380.698,0,0
356232,50.5334,-378.516,0,0
357534,50.3053,-376.272,0,0
358835,50.1251,-373.936,0,0
360137,49.8988,-371.658,0,0
361438,49.6123,-369.333,0,0
362740.1,49.361,-366.98,0,0
364041.725,49.192,-364.513,0,0
365343.35,49.035,-362.055,0,0
366644.975,48.9838,-359.684,0,0
367946.6,48.9333,-357.35,0,0
369248.225,48.8612,-355.028,0,0
370549.85,48.8125,-352.669,0,0
371851.475,48.8927,-350.353,0,0
373153.1,48.9923,-348.152,0,0
374454.725,48.9523,-346.211,0,0
375756.35,48.6352,-344.228,0,0
377057.975,48.2335,-341.994,0,0
378359.6,47.9084,-339.594,0,0
379661,47.6383,-337.168,0,0
380963,47.4018,-334.622,0,0
382264,47.3889,-331.935,0,0
383566,47.6705,-329.547,0,0
384868,47.6644,-327.421,0,0
386169,47.4426,-325.046,0,0
387471,47.3181,-322.605,0,0
388773,47.3205,-320.107,0,0
390074,47.2918,-317.546,0,0
391376,47.2999,-315.042,0,0
392677,47.3347,-312.456,0,0
393979,47.4329,-309.859,0,0
395280.7,47.547,-307.237,0,0
396582.325,47.702,-304.593,0,0
397883.95,47.8772,-301.895,0,0
399185.575,48.1267,-299.206,0,0
400006.6,48.3179,-297.475,0,0