File: Accelerated corrosion test data/2025-10-13_18-00-03/sample_1.csv
Frequency (Hz),Impedance (ohms),Phase (Radians),Temperature (C),Humidity (%)
10000.0,242.159,-12140.3,0,0
11301.625,215.232,-10754,0,0
12603.25,195.747,-9658.67,0,0
13904.875,184.381,-8738.35,0,0
15206.5,188.387,-8014.25,0,0
16508.125,155.962,-7389.72,0,0
17809.75,146.732,-6855.96,0,0
19111.375,135.161,-6390.07,0,0
20413.0,161.445,-5951.77,0,0
21714.625,136.52,-5634.3,0,0
23016.25,122.455,-5333.23,0,0
24317.875,111.573,-5042.45,0,0
25619.5,104.621,-4779.79,0,0
26921.1,116.385,-4533.69,0,0
28222.7,111.658,-4329.33,0,0
29524.4,106.619,-4164.19,0,0
30826,101.092,-3978.62,0,0
32127.6,97.598,-3821.28,0,0
33429.2,87.8075,-3678.16,0,0
34730.9,82.3536,-3537.21,0,0
36032.5,77.9763,-3406.91,0,0
37334.1,75.1502,-3285.34,0,0
38635.7,72.6996,-3172.02,0,0
39937.4,71.2208,-3065.99,0,0
41239,72.3684,-2968.06,0,0
42540.6,70.9662,-2876.43,0,0
43842.225,68.0939,-2789.4,0,0
45143.85,68.4222,-2708.19,0,0
46445.475,65.4507,-2632.05,0,0
47747.1,64.2112,-2559.26,0,0
49048.725,61.8372,-2489.21,0,0
50350.35,60.0416,-2423.13,0,0
51651.975,58.8586,-2360,0,0
52953.6,57.9136,-2299.25,0,0
54255.225,56.9274,-2242.56,0,0
55556.85,55.8308,-2187.55,0,0
56858.475,55.0829,-2134.71,0,0
58160.1,54.7558,-2084.41,0,0
59461.7,54.6416,-2036.65,0,0
60763.3,54.8025,-1991.23,0,0
62065,53.3271,-1947.31,0,0
63366.6,52.6821,-1903.94,0,0
64668.2,53.3365,-1862.11,0,0
65969.8,55.4157,-1824.45,0,0
67271.5,54.1734,-1787.62,0,0
68573.1,53.5263,-1752.53,0,0
69874.7,52.5331,-1718.91,0,0
71176.3,50.6504,-1684.57,0,0
72478,48.7851,-1650.87,0,0
73779.6,48.3651,-1617.59,0,0
75081.2,48.8838,-1585.66,0,0
76382.825,49.6957,-1554.72,0,0
77684.45,50.532,-1525.42,0,0
78986.075,52.226,-1498.09,0,0
80287.7,51.2691,-1471.74,0,0
81589.325,51.0717,-1443.98,0,0
82890.95,51.6552,-1417.31,0,0
84192.575,53.3267,-1391.23,0,0
85494.2,55.4147,-1367.1,0,0
86795.825,56.207,-1343.79,0,0
88097.45,56.6775,-1320.43,0,0
89399.075,58.613,-1296.2,0,0
90700.7,62.1172,-1273.02,0,0
92002.3,68.2884,-1252.1,0,0
93303.9,75.5167,-1235.77,0,0
94605.6,74.0324,-1228.08,0,0
95907.2,66.5636,-1209.53,0,0
97208.8,64.4494,-1189.02,0,0
98510.4,64.4098,-1168.87,0,0
99812.1,63.6539,-1148.84,0,0
101114,63.7306,-1129.17,0,0
102415,63.6253,-1107.25,0,0
103717,68.2995,-1086.21,0,0
105019,75.2607,-1068.98,0,0
106320.175,82.2915,-1053.16,0,0
107621.8,88.4091,-1041.45,0,0
108923.425,92.8997,-1030.67,0,0
110225.05,93.9917,-1023.04,0,0
111526.675,93.7997,-1010.86,0,0
112828.3,95.3492,-1000.82,0,0
114129.925,93.8792,-992.68,0,0
115431.55,90.0429,-982.897,0,0
116733.175,85.1462,-970.021,0,0
118034.8,81.3573,-954.763,0,0
119336.425,80.2154,-938.945,0,0
120638.05,81.16,-924.705,0,0
121939.675,80.419,-912.419,0,0
123241,78.8263,-898.052,0,0
124543,79.0933,-882.885,0,0
125845,80.353,-868.44,0,0
127146,81.6501,-854.522,0,0
128448,83.9019,-840.502,0,0
129749,86.4669,-826.28,0,0
131051,91.4921,-813.718,0,0
132353,95.2429,-803.809,0,0
133654,97.9012,-793.454,0,0
134956,100.172,-783.342,0,0
136258,102.386,-772.435,0,0
137559,106.835,-762.421,0,0
138860.775,109.176,-755.415,0,0
140162.4,108.698,-747.115,0,0
141464.025,108.855,-736.566,0,0
142765.65,109.928,-725.692,0,0
144067.275,111.356,-714.892,0,0
145368.9,113.028,-703.469,0,0
146670.525,116.108,-692.836,0,0
147972.15,118.026,-683.917,0,0
149273.775,120.783,-672.826,0,0
150575.4,122.037,-664.747,0,0
151877.025,121.382,-652.931,0,0
153178.65,121.933,-637.649,0,0
154480,126.219,-621.33,0,0
155782,134.299,-604.643,0,0
157084,146.45,-590.375,0,0
158385,159.356,-581.26,0,0
159687,169.95,-570.242,0,0
160988,188.504,-560.952,0,0
162290,207.019,-562.217,0,0
163592,218.654,-565.261,0,0
164893,229.421,-567.784,0,0
166195,241.554,-575.504,0,0
167497,246.39,-587.309,0,0
168798,242.353,-598.915,0,0
170100,231.957,-602.826,0,0
171401.375,224.125,-599.17,0,0
172703.0,220.353,-594.151,0,0
174004.625,216.515,-588.354,0,0
175306.25,215.861,-581.879,0,0
176607.875,215.99,-578.715,0,0
177909.5,214.866,-575.167,0,0
179211.125,211.141,-572.461,0,0
180512.75,205.309,-568.044,0,0
181814.375,199.279,-560.475,0,0
183116.0,192.581,-550.743,0,0
184417.625,186.768,-535.998,0,0
185719.25,186.536,-519.305,0,0
187021,188.48,-504.453,0,0
188322,191.479,-489.446,0,0
189624,195.869,-474.302,0,0
190926,201.118,-459.143,0,0
192227,207.476,-442.367,0,0
193529,216.423,-426.125,0,0
194831,226.614,-408.52,0,0
196132,240.587,-390.444,0,0
197434,258.211,-372.321,0,0
198735,279.491,-356.438,0,0
200037,302.715,-341.337,0,0
201339,331.368,-326.385,0,0
202640.35,369.104,-314.041,0,0
203941.975,413.351,-310.787,0,0
205243.6,464.43,-324.939,0,0
206545.225,504.618,-355.438,0,0
207846.85,529.26,-395.749,0,0
209148.475,539.293,-433.853,0,0
210450.1,534.777,-466.224,0,0
211751.725,525.708,-482.376,0,0
213053.35,524.308,-483.713,0,0
214354.975,538.103,-489.915,0,0
215656.6,553.588,-504.222,0,0
216958.225,564.299,-520.48,0,0
218259.85,577.559,-537.242,0,0
219561,595.678,-555.131,0,0
220863,616.885,-584.29,0,0
222165,635.021,-627.889,0,0
223466,635.757,-680.39,0,0
224768,622.931,-731.16,0,0
226070,598.975,-777.948,0,0
227371,564.297,-820.833,0,0
228673,517.41,-851.219,0,0
229974,468.476,-865.188,0,0
231276,425.166,-866.425,0,0
232578,390.324,-861.214,0,0
233879,361.759,-855.285,0,0
235180.95,336.301,-850.239,0,0
236482.575,311.504,-843.249,0,0
237784.2,288.387,-835.06,0,0
239085.825,267.009,-824.924,0,0
240387.45,248.139,-812.799,0,0
241689.075,232.06,-800.519,0,0
242990.7,218.308,-788.134,0,0
244292.325,206.622,-776.509,0,0
245593.95,194.743,-765.744,0,0
246895.575,183.255,-753.561,0,0
248197.2,173.781,-740.742,0,0
249498.825,166.005,-728.152,0,0
250800,159.084,-715.915,0,0
252102,153.096,-703.674,0,0
253404,147.906,-691.199,0,0
254705,144.312,-678.117,0,0
256007,142.629,-666.089,0,0
257309,141.496,-654.64,0,0
258610,141.222,-642.911,0,0
259912,143.524,-631.384,0,0
261213,148.2,-621.732,0,0
262515,153.8,-615.141,0,0
263817,159.096,-610.627,0,0
265118,164.999,-608.028,0,0
266420,170.839,-609.88,0,0
267721.55,171.953,-616.024,0,0
269023.175,165.469,-621.64,0,0
270324.8,155.432,-620.962,0,0
271626.425,146.616,-614.662,0,0
272928.05,141.545,-605.832,0,0
274229.675,140.228,-597.082,0,0
275531.3,140.503,-590.119,0,0
276832.925,141.909,-583.933,0,0
278134.55,144.546,-579.699,0,0
279436.175,146.693,-578.212,0,0
280737.8,146.584,-577.883,0,0
282039.425,144.323,-577.478,0,0
283341,140.818,-575.364,0,0
284643,137.438,-571.859,0,0
285944,134.475,-568.019,0,0
287246,130.246,-562.84,0,0
288548,127.902,-554.386,0,0
289849,130.106,-546.795,0,0
291151,132.433,-542.475,0,0
292452,133.758,-539.197,0,0
293754,133.321,-535.29,0,0
295056,133.56,-529.222,0,0
296357,136.642,-522.476,0,0
297659,141.28,-517.794,0,0
298960.525,146.689,-514.074,0,0
300262.15,152.863,-512.16,0,0
301563.775,159.216,-511.387,0,0
302865.4,165.877,-513.403,0,0
304167.025,170.945,-517.224,0,0
305468.65,174.736,-522.109,0,0
306770.275,177.555,-528.053,0,0
308071.9,177.678,-535.256,0,0
309373.525,176.021,-541.414,0,0
310675.15,173.692,-547.842,0,0
311976.775,169.292,-555.101,0,0
313278.4,161.234,-560.797,0,0
314580,152.524,-562.807,0,0
315882,144.701,-563.539,0,0
317183,136.718,-563.283,0,0
318485,128.963,-561.633,0,0
319787,121.77,-559.106,0,0
321088,114.971,-555.448,0,0
322390,108.86,-550.683,0,0
323691,104.272,-544.864,0,0
324993,101.511,-539.36,0,0
326295,99.8088,-534.679,0,0
327596,98.8126,-530.968,0,0
328898,97.7538,-528.516,0,0
330200,96.0431,-526.672,0,0
331501.125,93.6567,-525.158,0,0
332802.75,90.3867,-523.554,0,0
334104.375,86.7431,-521.348,0,0
335406.0,82.8989,-518.444,0,0
336707.625,79.4145,-514.748,0,0
338009.25,76.1622,-511.086,0,0
339310.875,73.171,-506.912,0,0
340612.5,70.6829,-502.66,0,0
341914.125,68.5434,-498.5,0,0
343215.75,66.4364,-494.555,0,0
344517.375,64.3096,-490.485,0,0
345819.0,62.287,-486.164,0,0
347121,60.4171,-481.63,0,0
348422,59.0407,-476.857,0,0
349724,58.0773,-472.096,0,0
351025,57.5586,-467.463,0,0
352327,57.2539,-463.156,0,0
353629,57.0172,-459.127,0,0
354930,56.7911,-454.964,0,0
356232,56.9126,-450.97,0,0
357534,57.1229,-447.224,0,0
358835,57.3261,-443.605,0,0
360137,57.6568,-439.975,0,0
361438,58.0626,-436.641,0,0
362740.1,58.3022,-433.275,0,0
364041.725,58.7266,-429.809,0,0
365343.35,59.2781,-426.493,0,0
366644.975,59.7528,-423.337,0,0
367946.6,59.9533,-419.735,0,0
369248.225,60.7682,-415.318,0,0
370549.85,62.8527,-410.969,0,0
371851.475,66.1431,-407.472,0,0
373153.1,69.808,-405.327,0,0
374454.725,73.0611,-404.68,0,0
375756.35,75.2538,-404.561,0,0
377057.975,76.9882,-404.153,0,0
378359.6,78.7247,-404.363,0,0
379661,79.7005,-404.765,0,0
380963,80.9394,-404.941,0,0
382264,81.9891,-406.643,0,0
383566,81.1964,-408.653,0,0
384868,79.1143,-410.085,0,0
386169,76.0533,-410.408,0,0
387471,72.9015,-409.293,0,0
388773,70.4725,-407.171,0,0
390074,68.9148,-404.871,0,0
391376,67.8767,-402.966,0,0
392677,66.6702,-401.586,0,0
393979,64.5771,-400.175,0,0
395280.7,62.3053,-397.767,0,0
396582.325,60.3056,-394.774,0,0
397883.95,58.8746,-391.337,0,0
399185.575,57.9302,-387.806,0,0
400006.6,57.4653,-385.599,0,0