File: Accelerated corrosion test data/2025-10-13_18-00-03/sample_7.csv
Frequency (Hz),Impedance (ohms),Phase (Radians),Temperature (C),Humidity (%)
10000.0,275.028,-12059.8,0,0
11301.625,248.597,-10669.1,0,0
12603.25,260.26,-9614.26,0,0
13904.875,210.284,-8730.09,0,0
15206.5,195.421,-7994.42,0,0
16508.125,172.725,-7354.46,0,0
17809.75,173.015,-6802.75,0,0
19111.375,184.819,-6349.79,0,0
20413.0,166.489,-5970.72,0,0
21714.625,156.398,-5629.36,0,0
23016.25,131.336,-5304.75,0,0
24317.875,124.169,-5012.27,0,0
25619.5,120.003,-4749.07,0,0
26921.1,124.018,-4505,0,0
28222.7,177.118,-4296.74,0,0
29524.4,141.035,-4162.3,0,0
30826,133.862,-3978.37,0,0
32127.6,118.573,-3832.25,0,0
33429.2,101.976,-3682.11,0,0
34730.9,93.082,-3537.47,0,0
36032.5,89.1288,-3404.17,0,0
37334.1,86.8114,-3280.74,0,0
38635.7,87.0213,-3164.13,0,0
39937.4,98.8571,-3064.8,0,0
41239,87.2254,-2977.42,0,0
42540.6,80.831,-2881.83,0,0
43842.225,79.4253,-2792.5,0,0
45143.85,80.8796,-2714.95,0,0
46445.475,77.228,-2643.47,0,0
47747.1,71.2436,-2567.14,0,0
49048.725,68.5068,-2497.04,0,0
50350.35,66.667,-2429.99,0,0
51651.975,64.792,-2366.61,0,0
52953.6,64.1783,-2306.18,0,0
54255.225,62.6821,-2249.69,0,0
55556.85,61.2875,-2194.95,0,0
56858.475,60.5789,-2142.75,0,0
58160.1,59.8417,-2092.35,0,0
59461.7,59.9307,-2045.1,0,0
60763.3,59.546,-2001.36,0,0
62065,57.4371,-1958.06,0,0
63366.6,56.1537,-1915.45,0,0
64668.2,55.5183,-1874.93,0,0
65969.8,55.3795,-1836.55,0,0
67271.5,53.6168,-1799.83,0,0
68573.1,52.383,-1763.22,0,0
69874.7,51.8509,-1727.86,0,0
71176.3,51.7025,-1694.34,0,0
72478,50.6485,-1662.18,0,0
73779.6,49.758,-1630.54,0,0
75081.2,49.3407,-1599.77,0,0
76382.825,48.7712,-1570.02,0,0
77684.45,48.4847,-1541.26,0,0
78986.075,48.1349,-1513.35,0,0
80287.7,48.0221,-1486.48,0,0
81589.325,47.6445,-1460.14,0,0
82890.95,47.4033,-1434.6,0,0
84192.575,47.3739,-1409.51,0,0
85494.2,47.6195,-1385.53,0,0
86795.825,47.6338,-1362.19,0,0
88097.45,47.8377,-1339.68,0,0
89399.075,47.3345,-1317.28,0,0
90700.7,47.5674,-1295.17,0,0
92002.3,48.0781,-1273.53,0,0
93303.9,48.554,-1252.47,0,0
94605.6,50.4699,-1232.52,0,0
95907.2,50.4822,-1214.8,0,0
97208.8,49.577,-1195.29,0,0
98510.4,50.5038,-1176.08,0,0
99812.1,50.4234,-1157.37,0,0
101114,51.7659,-1138.32,0,0
102415,53.273,-1120.41,0,0
103717,56.0348,-1104.12,0,0
105019,57.1267,-1088.59,0,0
106320.175,56.4962,-1072.68,0,0
107621.8,57.5693,-1056.29,0,0
108923.425,58.7826,-1040.1,0,0
110225.05,59.3314,-1023.27,0,0
111526.675,62.3093,-1006.39,0,0
112828.3,67.1067,-990.776,0,0
114129.925,72.2862,-977.047,0,0
115431.55,78.3625,-964.451,0,0
116733.175,85.9306,-956.665,0,0
118034.8,88.7528,-951.276,0,0
119336.425,91.4478,-948.403,0,0
120638.05,84.144,-947.893,0,0
121939.675,73.9221,-937.411,0,0
123241,66.6503,-923.841,0,0
124543,62.4895,-909.267,0,0
125845,58.6841,-895.109,0,0
127146,55.4422,-880.386,0,0
128448,53.7624,-865.733,0,0
129749,52.315,-851.047,0,0
131051,51.0618,-836.803,0,0
132353,50.6066,-821.454,0,0
133654,51.0289,-805.922,0,0
134956,53.7094,-790.983,0,0
136258,58.2798,-778.603,0,0
137559,59.1114,-770.332,0,0
138860.775,56.9141,-758.159,0,0
140162.4,56.8197,-744.658,0,0
141464.025,56.81,-731.08,0,0
142765.65,57.9614,-716.766,0,0
144067.275,60.3846,-703.446,0,0
145368.9,61.951,-691.094,0,0
146670.525,62.9441,-677.489,0,0
147972.15,65.2306,-664.032,0,0
149273.775,65.6862,-651.032,0,0
150575.4,66.4814,-635.271,0,0
151877.025,68.9568,-618.068,0,0
153178.65,73.5539,-600.197,0,0
154480,79.8258,-582.219,0,0
155782,88.5344,-564.312,0,0
157084,99.7151,-547.647,0,0
158385,112.605,-534.666,0,0
159687,121.678,-525.002,0,0
160988,125.718,-509.659,0,0
162290,135.434,-485.662,0,0
163592,154.184,-460.262,0,0
164893,181.328,-439.901,0,0
166195,212.298,-417.764,0,0
167497,261.555,-402.502,0,0
168798,322.439,-407.586,0,0
170100,379.23,-442.259,0,0
171401.375,413.807,-499.935,0,0
172703.0,422.669,-566.572,0,0
174004.625,388.014,-625.199,0,0
175306.25,342.611,-640.348,0,0
176607.875,320.186,-626.959,0,0
177909.5,330.031,-627.514,0,0
179211.125,326.864,-664.807,0,0
180512.75,293.893,-684.869,0,0
181814.375,255.645,-695.665,0,0
183116.0,214.164,-685.402,0,0
184417.625,185.093,-662.433,0,0
185719.25,165.993,-640.793,0,0
187021,152.544,-612.856,0,0
188322,149.419,-589.091,0,0
189624,144.405,-570.095,0,0
190926,138.809,-548.316,0,0
192227,138.236,-524.998,0,0
193529,140.384,-500.227,0,0
194831,146.757,-475.99,0,0
196132,157.762,-454.356,0,0
197434,169.648,-436.914,0,0
198735,178.788,-419.28,0,0
200037,188.802,-397.665,0,0
201339,204.978,-374.144,0,0
202640.35,227.877,-350.075,0,0
203941.975,258.07,-329.355,0,0
205243.6,295.598,-312.165,0,0
206545.225,342.12,-309.572,0,0
207846.85,376.067,-318.852,0,0
209148.475,414.623,-315.106,0,0
210450.1,475.338,-333.272,0,0
211751.725,517.676,-383.842,0,0
213053.35,534.889,-438.863,0,0
214354.975,534.36,-486.172,0,0
215656.6,526.719,-523.571,0,0
216958.225,518.736,-563.309,0,0
218259.85,493.282,-597.642,0,0
219561,455.795,-618.886,0,0
220863,423.027,-615.784,0,0
222165,406.742,-602.612,0,0
223466,403.475,-594.747,0,0
224768,401.483,-591.159,0,0
226070,407.907,-584.133,0,0
227371,420.875,-590.059,0,0
228673,433.237,-604.858,0,0
229974,439.186,-628.732,0,0
231276,434.139,-660.376,0,0
232578,419.415,-690.703,0,0
233879,388.088,-718.585,0,0
235180.95,342.998,-728.116,0,0
236482.575,308.91,-715.148,0,0
237784.2,285.496,-705.616,0,0
239085.825,261.434,-684.282,0,0
240387.45,258.079,-663.838,0,0
241689.075,253.087,-657.932,0,0
242990.7,239.76,-647.076,0,0
244292.325,232.741,-627.448,0,0
245593.95,236.629,-614.287,0,0
246895.575,237.921,-606.304,0,0
248197.2,237.917,-596.895,0,0
249498.825,240.713,-587.34,0,0
250800,246.503,-577.961,0,0
252102,256.761,-571.967,0,0
253404,269.697,-573.978,0,0
254705,276.298,-584.877,0,0
256007,272.899,-595.207,0,0
257309,265.16,-600.168,0,0
258610,257.789,-599.587,0,0
259912,252.162,-598.321,0,0
261213,246.516,-593.025,0,0
262515,246.411,-584.166,0,0
263817,255.022,-581.019,0,0
265118,259.924,-587.477,0,0
266420,258.918,-591.672,0,0
267721.55,258.602,-597.301,0,0
269023.175,253.831,-600.752,0,0
270324.8,253.597,-600.432,0,0
271626.425,260.788,-604.918,0,0
272928.05,265.554,-627.395,0,0
274229.675,247.36,-654.163,0,0
275531.3,212.993,-667.166,0,0
276832.925,177.543,-659.228,0,0
278134.55,152.818,-637.691,0,0
279436.175,141.817,-613.905,0,0
280737.8,139.93,-594.013,0,0
282039.425,139.899,-581.787,0,0
283341,136.643,-568.878,0,0
284643,137.64,-553.897,0,0
285944,142.57,-541.832,0,0
287246,147.764,-534.518,0,0
288548,149.877,-527.115,0,0
289849,153.287,-518.032,0,0
291151,159.823,-508.933,0,0
292452,167.684,-502.925,0,0
293754,175.715,-498.233,0,0
295056,184.37,-494.008,0,0
296357,194.804,-491.381,0,0
297659,207.365,-491.052,0,0
298960.525,220.319,-494.931,0,0
300262.15,233.524,-501.988,0,0
301563.775,247.678,-514.724,0,0
302865.4,258.259,-539.099,0,0
304167.025,251.241,-567.227,0,0
305468.65,235.087,-586.566,0,0
306770.275,214.829,-598.104,0,0
308071.9,194.416,-602.334,0,0
309373.525,175.323,-600.113,0,0
310675.15,161.271,-593.923,0,0
311976.775,150.701,-587.826,0,0
313278.4,141.032,-581.76,0,0
314580,132.418,-573.981,0,0
315882,127.067,-565.606,0,0
317183,123.848,-558.511,0,0
318485,120.986,-552.884,0,0
319787,118.823,-547.694,0,0
321088,116.884,-543.622,0,0
322390,114.65,-540.096,0,0
323691,111.881,-536.968,0,0
324993,108.87,-533.255,0,0
326295,107.033,-529.723,0,0
327596,104.648,-527.439,0,0
328898,101.408,-525.146,0,0
330200,97.8153,-522.374,0,0
331501.125,94.0134,-519.534,0,0
332802.75,89.6554,-516.48,0,0
334104.375,84.5215,-512.477,0,0
335406.0,79.9372,-507.332,0,0
336707.625,75.6952,-501.295,0,0
338009.25,72.4155,-494.671,0,0
339310.875,69.9617,-487.998,0,0
340612.5,68.0894,-481.179,0,0
341914.125,67.0832,-474.1,0,0
343215.75,67.062,-467.309,0,0
344517.375,68.0548,-461.092,0,0
345819.0,69.3589,-456.13,0,0
347121,70.3987,-452.27,0,0
348422,70.2246,-448.629,0,0
349724,69.5805,-444.135,0,0
351025,69.2217,-438.869,0,0
352327,70.0538,-433.038,0,0
353629,72.1863,-427.909,0,0
354930,74.806,-423.89,0,0
356232,77.2385,-421.679,0,0
357534,77.6518,-420.124,0,0
358835,76.7272,-417.229,0,0
360137,76.2343,-412.705,0,0
361438,76.9669,-407.663,0,0
362740.1,78.7787,-402.948,0,0
364041.725,81.0949,-398.581,0,0
365343.35,84.3379,-394.697,0,0
366644.975,87.7081,-392.446,0,0
367946.6,90.5534,-390.735,0,0
369248.225,93.1396,-389.743,0,0
370549.85,94.6572,-390.086,0,0
371851.475,93.4836,-389.626,0,0
373153.1,92.3853,-386.465,0,0
374454.725,93.0075,-382.542,0,0
375756.35,94.5097,-379.289,0,0
377057.975,95.6175,-376.593,0,0
378359.6,96.8034,-372.851,0,0
379661,99.1736,-369.189,0,0
380963,101.886,-366.218,0,0
382264,104.642,-363.383,0,0
383566,107.884,-360.774,0,0
384868,111.439,-358.883,0,0
386169,114.49,-357.311,0,0
387471,117.491,-355.786,0,0
388773,120.574,-353.545,0,0
390074,125.24,-351.624,0,0
391376,129.891,-351.153,0,0
392677,134.369,-351.102,0,0
393979,138.37,-351.138,0,0
395280.7,143.183,-350.466,0,0
396582.325,150.086,-350.709,0,0
397883.95,158.379,-353.736,0,0
399185.575,166.367,-360.741,0,0
400006.6,169.825,-367.639,0,0