File: Accelerated corrosion test data/2025-10-13_18-00-03/sample_3.csv
Frequency (Hz),Impedance (ohms),Phase (Radians),Temperature (C),Humidity (%)
10000.0,252.484,-11749.3,0,0
11301.625,225.103,-10407.5,0,0
12603.25,204.351,-9340.57,0,0
13904.875,186.504,-8470.91,0,0
15206.5,174.431,-7743.25,0,0
16508.125,162.048,-7150.07,0,0
17809.75,157.448,-6624.56,0,0
19111.375,147.208,-6174.9,0,0
20413.0,160.514,-5778.34,0,0
21714.625,139.228,-5453.92,0,0
23016.25,128.29,-5150.17,0,0
24317.875,120.171,-4872.5,0,0
25619.5,113.498,-4626.08,0,0
26921.1,108.768,-4396.57,0,0
28222.7,104.198,-4189.58,0,0
29524.4,108.562,-4014.53,0,0
30826,101.387,-3842.61,0,0
32127.6,102.12,-3678.03,0,0
33429.2,99.3325,-3554.99,0,0
34730.9,88.1141,-3416.92,0,0
36032.5,83.4399,-3289.58,0,0
37334.1,80.9161,-3172.29,0,0
38635.7,78.346,-3062.71,0,0
39937.4,76.1609,-2960.52,0,0
41239,74.4931,-2864.09,0,0
42540.6,73.4501,-2774.46,0,0
43842.225,72.0401,-2689.41,0,0
45143.85,70.9134,-2610.01,0,0
46445.475,69.8575,-2534.39,0,0
47747.1,70.7468,-2462.26,0,0
49048.725,68.712,-2396.95,0,0
50350.35,66.7988,-2331.98,0,0
51651.975,66.4945,-2269.58,0,0
52953.6,66.7185,-2209.92,0,0
54255.225,69.8786,-2155.21,0,0
55556.85,66.7935,-2108.32,0,0
56858.475,61.7324,-2055.38,0,0
58160.1,61.3498,-2003.61,0,0
59461.7,61.8906,-1954.49,0,0
60763.3,63.2472,-1907.99,0,0
62065,65.395,-1863.41,0,0
63366.6,69.0033,-1819.92,0,0
64668.2,77.9977,-1778.78,0,0
65969.8,92.9066,-1754.49,0,0
67271.5,75.6706,-1728.26,0,0
68573.1,75.84,-1691.06,0,0
69874.7,75.7697,-1661.95,0,0
71176.3,70.5676,-1630.87,0,0
72478,69.2628,-1598.5,0,0
73779.6,67.4906,-1570.4,0,0
75081.2,63.8301,-1541.9,0,0
76382.825,60.438,-1512.67,0,0
77684.45,57.9938,-1483.86,0,0
78986.075,55.9164,-1455.43,0,0
80287.7,54.4316,-1427.57,0,0
81589.325,53.4332,-1400.42,0,0
82890.95,52.9483,-1374.08,0,0
84192.575,52.6934,-1348.55,0,0
85494.2,52.6522,-1323.62,0,0
86795.825,52.8291,-1299.38,0,0
88097.45,53.3215,-1275.68,0,0
89399.075,54.8027,-1251.98,0,0
90700.7,56.9753,-1230.47,0,0
92002.3,59.36,-1209.82,0,0
93303.9,62.1808,-1191.29,0,0
94605.6,62.9429,-1176.92,0,0
95907.2,57.5709,-1159.09,0,0
97208.8,56.3447,-1137.81,0,0
98510.4,56.1255,-1118.22,0,0
99812.1,55.5568,-1099.24,0,0
101114,55.1831,-1079.53,0,0
102415,56.7219,-1059.04,0,0
103717,60.2902,-1041.59,0,0
105019,63.4159,-1027.5,0,0
106320.175,62.8727,-1013.64,0,0
107621.8,60.7814,-997.832,0,0
108923.425,59.0723,-980.376,0,0
110225.05,59.1498,-961.933,0,0
111526.675,61.4133,-944.208,0,0
112828.3,63.8179,-928.299,0,0
114129.925,65.3297,-912.426,0,0
115431.55,67.6087,-895.719,0,0
116733.175,71.4997,-879.367,0,0
118034.8,77.3377,-863.829,0,0
119336.425,84.0687,-851.708,0,0
120638.05,89.7559,-845.852,0,0
121939.675,86.6309,-837.453,0,0
123241,87.33,-824.498,0,0
124543,88.6086,-813.124,0,0
125845,89.8047,-802.93,0,0
127146,89.0351,-793.074,0,0
128448,86.9111,-782.094,0,0
129749,85.7018,-768.802,0,0
131051,86.999,-756.296,0,0
132353,86.2199,-745.16,0,0
133654,85.5691,-733.44,0,0
134956,83.8177,-720.899,0,0
136258,82.2621,-707.312,0,0
137559,82.1252,-692.042,0,0
138860.775,83.4125,-678.595,0,0
140162.4,82.7377,-664.724,0,0
141464.025,82.3832,-650.715,0,0
142765.65,81.7526,-634.578,0,0
144067.275,82.321,-617.373,0,0
145368.9,84.0605,-599.395,0,0
146670.525,86.8113,-580.542,0,0
147972.15,91.3376,-560.753,0,0
149273.775,98.2409,-540.286,0,0
150575.4,109.081,-520.403,0,0
151877.025,121.701,-503.916,0,0
153178.65,134.46,-490.861,0,0
154480,143.975,-478.918,0,0
155782,152.172,-462.932,0,0
157084,164.255,-444.811,0,0
158385,180.39,-434.217,0,0
159687,185.014,-418.803,0,0
160988,201.54,-391.798,0,0
162290,228.141,-365.3,0,0
163592,266.064,-345.975,0,0
164893,315.054,-336.521,0,0
166195,365.386,-352.442,0,0
167497,401.489,-384.458,0,0
168798,422.016,-422.236,0,0
170100,417.267,-463.791,0,0
171401.375,401.953,-477.03,0,0
172703.0,396.791,-478.398,0,0
174004.625,405.454,-486.231,0,0
175306.25,405.637,-502.333,0,0
176607.875,404.015,-519.347,0,0
177909.5,382.655,-535.921,0,0
179211.125,360.995,-527.092,0,0
180512.75,357.449,-513.684,0,0
181814.375,362.935,-511.647,0,0
183116.0,354.167,-516.836,0,0
184417.625,340.465,-512.408,0,0
185719.25,327.849,-498.851,0,0
187021,324.813,-475.699,0,0
188322,333.432,-457.966,0,0
189624,339.238,-445.212,0,0
190926,348.364,-432.216,0,0
192227,356.993,-419.327,0,0
193529,368.522,-399.71,0,0
194831,393.566,-382.9,0,0
196132,426.684,-378.809,0,0
197434,450.059,-392.149,0,0
198735,462.943,-401.389,0,0
200037,470.935,-407.785,0,0
201339,476.081,-400.707,0,0
202640.35,495.949,-390.135,0,0
203941.975,527.518,-390.948,0,0
205243.6,555.321,-406.61,0,0
206545.225,566.566,-421.496,0,0
207846.85,585.676,-423.615,0,0
209148.475,617.055,-433.306,0,0
210450.1,648.108,-456.25,0,0
211751.725,672.928,-488.814,0,0
213053.35,692.44,-523.265,0,0
214354.975,705.688,-564.976,0,0
215656.6,710.809,-609.019,0,0
216958.225,708.288,-655.596,0,0
218259.85,693.899,-699.078,0,0
219561,673.301,-734.172,0,0
220863,653.101,-769.069,0,0
222165,624.565,-805.069,0,0
223466,580.348,-830.359,0,0
224768,539.824,-831.226,0,0
226070,520.405,-829.077,0,0
227371,503.978,-838.992,0,0
228673,478.812,-851.571,0,0
229974,451.535,-858.3,0,0
231276,423.059,-861.117,0,0
232578,396.596,-859.887,0,0
233879,371.518,-857.086,0,0
235180.95,348.009,-852.317,0,0
236482.575,323.32,-846.58,0,0
237784.2,298.515,-837.529,0,0
239085.825,275.193,-821.908,0,0
240387.45,258.717,-804.14,0,0
241689.075,245.432,-785.623,0,0
242990.7,237.913,-767.585,0,0
244292.325,234.107,-753.675,0,0
245593.95,229.074,-742.725,0,0
246895.575,224.122,-731.048,0,0
248197.2,220.413,-719.739,0,0
249498.825,219.601,-710.18,0,0
250800,216.768,-704.835,0,0
252102,209.63,-698.048,0,0
253404,202.287,-686.427,0,0
254705,198.153,-671.627,0,0
256007,199.537,-655.17,0,0
257309,207.135,-642.666,0,0
258610,214.397,-634.338,0,0
259912,226.546,-626.851,0,0
261213,241.626,-629.191,0,0
262515,249.535,-642.32,0,0
263817,246.189,-655.715,0,0
265118,235.15,-664.495,0,0
266420,221.049,-666.219,0,0
267721.55,207.759,-660.583,0,0
269023.175,200.083,-651.355,0,0
270324.8,195.271,-642.022,0,0
271626.425,194.437,-632.754,0,0
272928.05,194.769,-626.526,0,0
274229.675,195.18,-619.022,0,0
275531.3,199.389,-612.409,0,0
276832.925,206.701,-609.241,0,0
278134.55,213.508,-612.7,0,0
279436.175,215.548,-620.065,0,0
280737.8,211.95,-627.918,0,0
282039.425,204.027,-632.826,0,0
283341,194.529,-633.923,0,0
284643,184.924,-631.333,0,0
285944,176.979,-625.792,0,0
287246,171.829,-618.425,0,0
288548,170.249,-611.457,0,0
289849,170.054,-606.731,0,0
291151,169.743,-603.953,0,0
292452,167.572,-600.886,0,0
293754,167.185,-595.824,0,0
295056,169.808,-592.62,0,0
296357,172.798,-593.478,0,0
297659,172.97,-597.296,0,0
298960.525,169.289,-600.994,0,0
300262.15,163.613,-603.115,0,0
301563.775,156.705,-603.419,0,0
302865.4,149.709,-601.424,0,0
304167.025,143.402,-598.226,0,0
305468.65,137.933,-593.698,0,0
306770.275,134.06,-588.635,0,0
308071.9,131.676,-584.216,0,0
309373.525,129.281,-581.164,0,0
310675.15,126.09,-578.537,0,0
311976.775,121.81,-575.475,0,0
313278.4,117.223,-570.748,0,0
314580,113.75,-564.432,0,0
315882,112.868,-557.513,0,0
317183,113.795,-552.496,0,0
318485,114.515,-549.432,0,0
319787,114.328,-546.765,0,0
321088,114.28,-543.913,0,0
322390,115.214,-542.015,0,0
323691,115.478,-541.882,0,0
324993,113.988,-542.736,0,0
326295,110.649,-543.048,0,0
327596,106.286,-542.139,0,0
328898,101.94,-540.056,0,0
330200,97.8612,-537.237,0,0
331501.125,93.6546,-534.245,0,0
332802.75,89.3966,-530.558,0,0
334104.375,85.2558,-525.951,0,0
335406.0,81.6045,-520.51,0,0
336707.625,78.8352,-514.361,0,0
338009.25,77.0631,-508.171,0,0
339310.875,76.0514,-501.559,0,0
340612.5,76.5535,-494.901,0,0
341914.125,78.6831,-489.39,0,0
343215.75,81.3223,-485.841,0,0
344517.375,83.0238,-484.061,0,0
345819.0,83.1115,-482.392,0,0
347121,82.8253,-480.231,0,0
348422,81.9561,-477.701,0,0
349724,81.3489,-474.098,0,0
351025,82.4603,-470.513,0,0
352327,84.2612,-468.955,0,0
353629,84.1778,-468.704,0,0
354930,82.6699,-467.667,0,0
356232,80.8298,-465.575,0,0
357534,79.0132,-462.789,0,0
358835,77.9388,-459.159,0,0
360137,77.9287,-455.678,0,0
361438,77.8829,-452.905,0,0
362740.1,77.713,-449.867,0,0
364041.725,78.5888,-446.577,0,0
365343.35,80.185,-445.03,0,0
366644.975,80.3317,-444.957,0,0
367946.6,78.4731,-444.233,0,0
369248.225,75.9466,-441.438,0,0
370549.85,75.6245,-436.891,0,0
371851.475,77.3547,-434.522,0,0
373153.1,77.4464,-434.22,0,0
374454.725,75.6416,-432.879,0,0
375756.35,73.7536,-430.037,0,0
377057.975,73.0665,-426.332,0,0
378359.6,73.415,-422.945,0,0
379661,74.4008,-420.25,0,0
380963,75.1079,-418.7,0,0
382264,75.0845,-417.075,0,0
383566,75.1495,-415.681,0,0
384868,74.2565,-414.398,0,0
386169,73.0653,-412.47,0,0
387471,71.8119,-410.036,0,0
388773,70.4801,-406.845,0,0
390074,69.9474,-402.747,0,0
391376,70.7353,-398.504,0,0
392677,72.7393,-394.888,0,0
393979,75.2321,-392.627,0,0
395280.7,77.4421,-391.382,0,0
396582.325,79.342,-390.915,0,0
397883.95,80.4234,-391.269,0,0
399185.575,80.2774,-391.782,0,0
400006.6,79.7612,-391.898,0,0