File: Accelerated corrosion test data/2025-10-06_14-56-48/sample_3.csv
Frequency (Hz),Impedance (ohms),Phase (Radians),Temperature (C),Humidity (%)
10000.0,255.317,-11727.6,0,0
11301.625,227.429,-10388.6,0,0
12603.25,205.548,-9323.46,0,0
13904.875,188.129,-8455.41,0,0
15206.5,175.358,-7729.89,0,0
16508.125,164.024,-7138.23,0,0
17809.75,158.908,-6612.93,0,0
19111.375,148.242,-6163.24,0,0
20413.0,159.874,-5762.89,0,0
21714.625,139.68,-5445.56,0,0
23016.25,128.997,-5141.52,0,0
24317.875,120.881,-4863.61,0,0
25619.5,114.395,-4617.32,0,0
26921.1,109.89,-4388.72,0,0
28222.7,104.627,-4182.91,0,0
29524.4,110.707,-4005.79,0,0
30826,100.914,-3835.36,0,0
32127.6,102.185,-3672.52,0,0
33429.2,99.9678,-3547.87,0,0
34730.9,88.4765,-3411.05,0,0
36032.5,84.3823,-3283.83,0,0
37334.1,81.1474,-3166.61,0,0
38635.7,78.8562,-3057.33,0,0
39937.4,76.5671,-2955.45,0,0
41239,74.936,-2858.92,0,0
42540.6,73.7194,-2769.59,0,0
43842.225,72.6089,-2684.78,0,0
45143.85,71.5499,-2605.24,0,0
46445.475,70.5474,-2529.93,0,0
47747.1,70.6164,-2457.71,0,0
49048.725,69.0879,-2392.62,0,0
50350.35,67.2585,-2327.83,0,0
51651.975,66.8346,-2265.43,0,0
52953.6,67.1622,-2206.01,0,0
54255.225,69.9937,-2151.61,0,0
55556.85,67.2021,-2104.44,0,0
56858.475,62.312,-2051.88,0,0
58160.1,61.679,-2000.12,0,0
59461.7,62.3331,-1951.09,0,0
60763.3,63.631,-1904.57,0,0
62065,65.9188,-1860.18,0,0
63366.6,69.503,-1816.77,0,0
64668.2,78.4785,-1775.19,0,0
65969.8,92.2654,-1751.31,0,0
67271.5,76.8154,-1725.19,0,0
68573.1,76.7552,-1688.11,0,0
69874.7,75.9908,-1659.21,0,0
71176.3,70.5017,-1628.55,0,0
72478,69.1022,-1595.96,0,0
73779.6,67.2878,-1567.51,0,0
75081.2,63.7694,-1539.04,0,0
76382.825,60.4082,-1509.75,0,0
77684.45,58.0546,-1480.94,0,0
78986.075,55.9822,-1452.57,0,0
80287.7,54.6294,-1424.69,0,0
81589.325,53.6229,-1397.6,0,0
82890.95,53.133,-1371.25,0,0
84192.575,52.899,-1345.73,0,0
85494.2,52.9325,-1320.81,0,0
86795.825,53.0898,-1296.61,0,0
88097.45,53.6841,-1272.76,0,0
89399.075,55.0116,-1249.2,0,0
90700.7,57.5834,-1227.44,0,0
92002.3,60.2526,-1206.87,0,0
93303.9,63.4587,-1188.38,0,0
94605.6,64.4493,-1174.04,0,0
95907.2,58.7078,-1156.79,0,0
97208.8,57.6341,-1135.84,0,0
98510.4,57.3432,-1116.65,0,0
99812.1,56.5225,-1097.97,0,0
101114,55.9376,-1078.25,0,0
102415,57.1507,-1057.79,0,0
103717,60.9092,-1040.12,0,0
105019,64.1305,-1026.38,0,0
106320.175,63.1039,-1012.81,0,0
107621.8,60.5266,-996.854,0,0
108923.425,58.837,-978.983,0,0
110225.05,59.1443,-960.274,0,0
111526.675,61.5608,-942.529,0,0
112828.3,63.6902,-926.62,0,0
114129.925,65.5406,-910.506,0,0
115431.55,67.9047,-893.885,0,0
116733.175,71.8632,-877.582,0,0
118034.8,77.738,-862.151,0,0
119336.425,84.2132,-850.812,0,0
120638.05,89.5962,-844.471,0,0
121939.675,87.1221,-835.955,0,0
123241,87.5118,-823.217,0,0
124543,88.7684,-812.205,0,0
125845,89.5308,-801.952,0,0
127146,88.4489,-792.255,0,0
128448,86.5414,-780.883,0,0
129749,84.81,-767.383,0,0
131051,86.0917,-754.317,0,0
132353,85.7656,-743.158,0,0
133654,85.1222,-731.254,0,0
134956,83.4369,-718.816,0,0
136258,82.1179,-704.975,0,0
137559,82.0246,-689.775,0,0
138860.775,83.3115,-676.329,0,0
140162.4,82.5786,-662.529,0,0
141464.025,82.5212,-648.151,0,0
142765.65,82.0905,-632.237,0,0
144067.275,82.6201,-615.019,0,0
145368.9,84.4451,-597.071,0,0
146670.525,87.2389,-578.137,0,0
147972.15,91.9117,-558.228,0,0
149273.775,98.7964,-538.07,0,0
150575.4,109.761,-517.777,0,0
151877.025,122.833,-501.507,0,0
153178.65,135.428,-488.552,0,0
154480,145.04,-476.407,0,0
155782,153.484,-460.015,0,0
157084,165.488,-442.77,0,0
158385,180.979,-430.506,0,0
159687,187.718,-415.577,0,0
160988,204.023,-386.87,0,0
162290,231.265,-362.074,0,0
163592,269.755,-344.098,0,0
164893,318.573,-335.618,0,0
166195,371.725,-350.656,0,0
167497,408.925,-386.927,0,0
168798,425.344,-428.773,0,0
170100,420.496,-468.233,0,0
171401.375,401.278,-481.756,0,0
172703.0,396.234,-481.079,0,0
174004.625,404.248,-487.661,0,0
175306.25,408.944,-504.828,0,0
176607.875,400.689,-522.77,0,0
177909.5,381.399,-535.332,0,0
179211.125,360.633,-528,0,0
180512.75,356.255,-514.888,0,0
181814.375,359.345,-511.256,0,0
183116.0,352.095,-515.589,0,0
184417.625,339.691,-510.72,0,0
185719.25,327.863,-497.595,0,0
187021,324.647,-474.263,0,0
188322,333.02,-456.317,0,0
189624,339.663,-444.018,0,0
190926,349.192,-431.105,0,0
192227,358.634,-417.535,0,0
193529,370.297,-400.294,0,0
194831,395.617,-382.409,0,0
196132,427.852,-380.769,0,0
197434,451.347,-394.451,0,0
198735,462.67,-404.439,0,0
200037,470.922,-407.679,0,0
201339,475.127,-404.32,0,0
202640.35,492.921,-392.973,0,0
203941.975,523.475,-391.789,0,0
205243.6,551.855,-404.1,0,0
206545.225,566.266,-421.78,0,0
207846.85,583.246,-423.671,0,0
209148.475,613.277,-432.252,0,0
210450.1,644.767,-453.939,0,0
211751.725,670.776,-483.766,0,0
213053.35,691.597,-518.64,0,0
214354.975,706.874,-560.15,0,0
215656.6,716.129,-605.03,0,0
216958.225,712.913,-656.032,0,0
218259.85,697.031,-699.472,0,0
219561,675.629,-735.834,0,0
220863,656.614,-772.627,0,0
222165,624.867,-807.991,0,0
223466,580.471,-833.768,0,0
224768,539.235,-834.335,0,0
226070,518.161,-830.442,0,0
227371,502.519,-840.597,0,0
228673,477.936,-853.891,0,0
229974,448.408,-860.96,0,0
231276,419.013,-862.483,0,0
232578,392.455,-860.127,0,0
233879,368.138,-856.052,0,0
235180.95,344.717,-851.552,0,0
236482.575,319.729,-845.702,0,0
237784.2,295.362,-835.146,0,0
239085.825,272.284,-820.099,0,0
240387.45,255.878,-801.132,0,0
241689.075,243.636,-782.788,0,0
242990.7,236.432,-764.876,0,0
244292.325,232.598,-750.265,0,0
245593.95,228.925,-739.036,0,0
246895.575,224.2,-728.576,0,0
248197.2,220.308,-717.745,0,0
249498.825,218.993,-707.842,0,0
250800,216.513,-702.148,0,0
252102,210.005,-695.645,0,0
253404,202.125,-684.497,0,0
254705,198.267,-668.946,0,0
256007,199.75,-652.913,0,0
257309,207.743,-639.846,0,0
258610,216.339,-632.532,0,0
259912,227.003,-626.115,0,0
261213,240.886,-627.283,0,0
262515,250.189,-639.235,0,0
263817,247.627,-653.186,0,0
265118,237.105,-662.759,0,0
266420,222.689,-665.009,0,0
267721.55,209.459,-659.626,0,0
269023.175,201.127,-650.484,0,0
270324.8,196.856,-641.184,0,0
271626.425,195.736,-631.906,0,0
272928.05,196.938,-625.511,0,0
274229.675,197.214,-619.284,0,0
275531.3,200.716,-612.565,0,0
276832.925,208.086,-609.582,0,0
278134.55,214.84,-613.457,0,0
279436.175,216.259,-621.579,0,0
280737.8,211.394,-628.991,0,0
282039.425,203.372,-633.111,0,0
283341,193.471,-633.508,0,0
284643,184.513,-630.383,0,0
285944,176.705,-624.892,0,0
287246,171.561,-617.088,0,0
288548,170.963,-609.601,0,0
289849,171.318,-605.58,0,0
291151,171.103,-602.744,0,0
292452,169.422,-600.114,0,0
293754,168.963,-595.774,0,0
295056,171.672,-592.757,0,0
296357,174.769,-594.357,0,0
297659,174.385,-598.72,0,0
298960.525,170.014,-602.79,0,0
300262.15,163.644,-604.637,0,0
301563.775,156.465,-604.527,0,0
302865.4,149.311,-602.345,0,0
304167.025,143.046,-598.876,0,0
305468.65,137.626,-594.454,0,0
306770.275,133.445,-589.232,0,0
308071.9,130.997,-584.504,0,0
309373.525,128.862,-581.357,0,0
310675.15,125.615,-578.776,0,0
311976.775,121.391,-575.704,0,0
313278.4,116.6,-570.84,0,0
314580,113.389,-564.187,0,0
315882,112.707,-557.356,0,0
317183,113.888,-552.395,0,0
318485,114.787,-549.796,0,0
319787,114.386,-547.518,0,0
321088,113.926,-544.795,0,0
322390,114.379,-542.752,0,0
323691,114.514,-542.359,0,0
324993,112.803,-542.891,0,0
326295,109.608,-543.033,0,0
327596,105.372,-541.974,0,0
328898,101.109,-539.667,0,0
330200,97.1785,-537.099,0,0
331501.125,93.0146,-534.147,0,0
332802.75,88.72,-530.394,0,0
334104.375,84.4346,-525.886,0,0
335406.0,80.88,-520.083,0,0
336707.625,78.3606,-513.892,0,0
338009.25,76.7262,-507.705,0,0
339310.875,75.8713,-501.201,0,0
340612.5,76.439,-494.638,0,0
341914.125,78.6545,-489.272,0,0
343215.75,81.1699,-486.035,0,0
344517.375,82.6387,-484.309,0,0
345819.0,82.6339,-482.592,0,0
347121,82.1993,-480.449,0,0
348422,81.3282,-477.746,0,0
349724,80.9554,-474.335,0,0
351025,81.8265,-470.92,0,0
352327,83.2545,-469.248,0,0
353629,83.171,-468.961,0,0
354930,81.449,-467.95,0,0
356232,79.5081,-465.569,0,0
357534,77.9432,-462.643,0,0
358835,76.7368,-458.958,0,0
360137,76.5431,-455.331,0,0
361438,76.6758,-452.347,0,0
362740.1,76.7959,-449.318,0,0
364041.725,77.6141,-446.262,0,0
365343.35,79.1443,-444.551,0,0
366644.975,79.3924,-444.574,0,0
367946.6,77.2895,-443.998,0,0
369248.225,74.5071,-440.966,0,0
370549.85,74.2961,-436.137,0,0
371851.475,76.2026,-433.633,0,0
373153.1,76.4078,-433.291,0,0
374454.725,74.6609,-432.068,0,0
375756.35,72.8642,-429.208,0,0
377057.975,72.0795,-425.409,0,0
378359.6,72.5668,-421.935,0,0
379661,73.4621,-419.315,0,0
380963,74.2154,-417.495,0,0
382264,74.588,-416.015,0,0
383566,74.4445,-414.783,0,0
384868,73.652,-413.53,0,0
386169,72.3648,-411.526,0,0
387471,71.1908,-408.923,0,0
388773,70.0557,-405.805,0,0
390074,69.5644,-401.864,0,0
391376,70.1885,-397.793,0,0
392677,71.9853,-394.053,0,0
393979,74.5616,-391.517,0,0
395280.7,77.0865,-390.253,0,0
396582.325,79.0912,-390.049,0,0
397883.95,80.07,-390.617,0,0
399185.575,79.7173,-391.146,0,0
400006.6,79.094,-391.124,0,0