File: Accelerated corrosion test data/2025-10-06_14-56-48/sample_4.csv
Frequency (Hz),Impedance (ohms),Phase (Radians),Temperature (C),Humidity (%)
10000.0,267.77,-11812.1,0,0
11301.625,237.765,-10465,0,0
12603.25,216.017,-9388.97,0,0
13904.875,195.865,-8513.16,0,0
15206.5,184.103,-7792.68,0,0
16508.125,192.331,-7179.71,0,0
17809.75,157.49,-6676.34,0,0
19111.375,147.269,-6221.96,0,0
20413.0,142.707,-5823.89,0,0
21714.625,147.251,-5479.12,0,0
23016.25,126.984,-5181.65,0,0
24317.875,118.087,-4898.63,0,0
25619.5,113.587,-4646.39,0,0
26921.1,107.771,-4418.55,0,0
28222.7,120.46,-4214.51,0,0
29524.4,112.653,-4037.6,0,0
30826,99.7671,-3866.65,0,0
32127.6,100.438,-3707.02,0,0
33429.2,91.122,-3567.24,0,0
34730.9,86.3526,-3429.46,0,0
36032.5,82.8689,-3303.01,0,0
37334.1,80.6212,-3184.73,0,0
38635.7,78.2888,-3073.32,0,0
39937.4,77.7314,-2968.17,0,0
41239,79.3757,-2874.07,0,0
42540.6,79.6054,-2787.1,0,0
43842.225,74.5463,-2703.51,0,0
45143.85,72.0865,-2622.82,0,0
46445.475,71.6667,-2546.17,0,0
47747.1,70.6554,-2476.29,0,0
49048.725,67.1354,-2407.86,0,0
50350.35,65.3446,-2340.7,0,0
51651.975,64.7115,-2276.16,0,0
52953.6,66.5024,-2213.68,0,0
54255.225,74.572,-2157.89,0,0
55556.85,72.6884,-2114.5,0,0
56858.475,66.5136,-2061.34,0,0
58160.1,67.5202,-2009.1,0,0
59461.7,72.1063,-1958.42,0,0
60763.3,81.191,-1921.66,0,0
62065,70.4715,-1888.27,0,0
63366.6,65.0124,-1842.73,0,0
64668.2,65.3102,-1799.6,0,0
65969.8,67.3469,-1759.27,0,0
67271.5,71.5294,-1723.61,0,0
68573.1,74.1305,-1695,0,0
69874.7,66.6668,-1664.43,0,0
71176.3,65.6033,-1630.79,0,0
72478,59.9486,-1599.41,0,0
73779.6,58.3482,-1563.18,0,0
75081.2,60.5918,-1530.63,0,0
76382.825,62.8278,-1502.06,0,0
77684.45,65.4319,-1474.61,0,0
78986.075,64.0183,-1451.93,0,0
80287.7,61.1443,-1425.14,0,0
81589.325,60.4779,-1399.23,0,0
82890.95,59.2126,-1374.09,0,0
84192.575,58.153,-1349.29,0,0
85494.2,57.5069,-1325.06,0,0
86795.825,56.7849,-1301.69,0,0
88097.45,55.527,-1279.31,0,0
89399.075,54.0261,-1255.22,0,0
90700.7,53.8703,-1232.03,0,0
92002.3,54.1457,-1208.98,0,0
93303.9,55.2514,-1188.32,0,0
94605.6,53.9716,-1167.76,0,0
95907.2,53.5199,-1145.24,0,0
97208.8,54.4804,-1123.73,0,0
98510.4,55.9405,-1102.43,0,0
99812.1,58.6998,-1081.64,0,0
101114,63.1375,-1063.59,0,0
102415,61.9929,-1049.38,0,0
103717,59.0676,-1026.6,0,0
105019,63.1502,-1003.06,0,0
106320.175,69.8398,-983.047,0,0
107621.8,76.6319,-965.477,0,0
108923.425,85.0292,-949.164,0,0
110225.05,92.8898,-936.854,0,0
111526.675,99.0622,-926.305,0,0
112828.3,103.868,-916.743,0,0
114129.925,106.963,-908.285,0,0
115431.55,108.458,-900.415,0,0
116733.175,107.38,-892.095,0,0
118034.8,104.673,-881.14,0,0
119336.425,105.469,-866.719,0,0
120638.05,110.454,-861.287,0,0
121939.675,103.525,-854.62,0,0
123241,98.7409,-842.17,0,0
124543,95.5219,-829.553,0,0
125845,93.0932,-816.863,0,0
127146,89.7099,-805.18,0,0
128448,85.2883,-792.737,0,0
129749,79.4792,-777.578,0,0
131051,75.3427,-759.955,0,0
132353,73.2193,-741.46,0,0
133654,72.7555,-722.742,0,0
134956,73.6181,-704.005,0,0
136258,75.9744,-685.781,0,0
137559,78.8568,-668.713,0,0
138860.775,80.7677,-651.095,0,0
140162.4,84.1135,-632.199,0,0
141464.025,89.2059,-613.353,0,0
142765.65,95.1334,-595.016,0,0
144067.275,101.987,-576.511,0,0
145368.9,110.048,-557.974,0,0
146670.525,119.948,-539.348,0,0
147972.15,131.029,-521.663,0,0
149273.775,143.816,-503.497,0,0
150575.4,159.543,-485.928,0,0
151877.025,178.721,-470.587,0,0
153178.65,200.777,-459.512,0,0
154480,221.621,-455.186,0,0
155782,238.105,-451.626,0,0
157084,252.586,-449.049,0,0
158385,267.881,-442.378,0,0
159687,289.762,-440.337,0,0
160988,307.072,-449.343,0,0
162290,312.913,-455.342,0,0
163592,318.382,-453.667,0,0
164893,329.587,-447.548,0,0
166195,345.713,-443.593,0,0
167497,371.771,-444.313,0,0
168798,397.58,-463.851,0,0
170100,410.465,-493.727,0,0
171401.375,402.879,-530.438,0,0
172703.0,376.118,-552.066,0,0
174004.625,343.445,-554.485,0,0
175306.25,317.479,-540.754,0,0
176607.875,302.048,-518.785,0,0
177909.5,296.884,-495.698,0,0
179211.125,296.951,-475.45,0,0
180512.75,300.406,-456.924,0,0
181814.375,304.504,-439.881,0,0
183116.0,308.104,-421.74,0,0
184417.625,313.945,-399.908,0,0
185719.25,324.259,-375.849,0,0
187021,339.95,-350.67,0,0
188322,361.212,-325.014,0,0
189624,389.827,-300.048,0,0
190926,426.946,-278.157,0,0
192227,471.507,-262.754,0,0
193529,521.743,-256.361,0,0
194831,574.161,-259.305,0,0
196132,627.761,-270.396,0,0
197434,685.507,-290,0,0
198735,745.922,-326.793,0,0
200037,798.755,-384.726,0,0
201339,831.48,-457.987,0,0
202640.35,840.073,-533.572,0,0
203941.975,832.814,-598.543,0,0
205243.6,817.315,-658.149,0,0
206545.225,794.715,-710.596,0,0
207846.85,766.178,-764.561,0,0
209148.475,717.776,-807.087,0,0
210450.1,668.184,-827.533,0,0
211751.725,625.22,-835.104,0,0
213053.35,592.108,-833.479,0,0
214354.975,570.222,-829.03,0,0
215656.6,558.8,-832.394,0,0
216958.225,542.883,-843.872,0,0
218259.85,523.465,-853.179,0,0
219561,503.943,-862.352,0,0
220863,481.727,-872.646,0,0
222165,455.981,-879.707,0,0
223466,430.158,-882.935,0,0
224768,404.459,-884.77,0,0
226070,376.339,-885.289,0,0
227371,346.484,-879.448,0,0
228673,318.151,-868.154,0,0
229974,294.3,-850.949,0,0
231276,277.093,-832.126,0,0
232578,264.023,-814.183,0,0
233879,254.541,-796.712,0,0
235180.95,247.955,-780.94,0,0
236482.575,243.177,-767.826,0,0
237784.2,239.008,-754.787,0,0
239085.825,237.779,-743.995,0,0
240387.45,236.49,-736.258,0,0
241689.075,233.483,-730.362,0,0
242990.7,229.17,-725.016,0,0
244292.325,223.15,-719.315,0,0
245593.95,216.208,-711.653,0,0
246895.575,210.535,-701.834,0,0
248197.2,207.763,-692.488,0,0
249498.825,204.553,-685.101,0,0
250800,200.7,-677.538,0,0
252102,195.515,-670.183,0,0
253404,188.094,-659.518,0,0
254705,183.375,-644.786,0,0
256007,181.747,-627.488,0,0
257309,185.764,-608.736,0,0
258610,195.173,-591.223,0,0
259912,210.715,-576.625,0,0
261213,230.317,-568.807,0,0
262515,250.476,-567.669,0,0
263817,270.71,-573.605,0,0
265118,287.421,-586.219,0,0
266420,298.882,-605.135,0,0
267721.55,299.851,-627.088,0,0
269023.175,294.24,-646.417,0,0
270324.8,279.674,-660.797,0,0
271626.425,267.773,-665.001,0,0
272928.05,259.494,-672.06,0,0
274229.675,247.635,-679.918,0,0
275531.3,230.168,-685.899,0,0
276832.925,209.551,-684.017,0,0
278134.55,191.562,-673.646,0,0
279436.175,181.84,-658.261,0,0
280737.8,180.208,-646.295,0,0
282039.425,178.603,-639.276,0,0
283341,177.585,-631.34,0,0
284643,178.159,-627.637,0,0
285944,176.035,-625.215,0,0
287246,170.357,-621.211,0,0
288548,165.756,-611.631,0,0
289849,168.097,-598.599,0,0
291151,179.178,-590.818,0,0
292452,191.354,-592.881,0,0
293754,199.222,-602.667,0,0
295056,198.211,-616.255,0,0
296357,188.557,-626.316,0,0
297659,176.368,-629.325,0,0
298960.525,166.254,-628.174,0,0
300262.15,157.665,-626.012,0,0
301563.775,149.377,-622.964,0,0
302865.4,141.925,-618.166,0,0
304167.025,135.601,-612.803,0,0
305468.65,130.62,-606.687,0,0
306770.275,127.272,-600.534,0,0
308071.9,125.422,-595.51,0,0
309373.525,123.492,-591.984,0,0
310675.15,120.661,-589.06,0,0
311976.775,117.078,-585.462,0,0
313278.4,113.861,-581.102,0,0
314580,111.626,-576.5,0,0
315882,110.232,-572.635,0,0
317183,108.91,-569.803,0,0
318485,107.117,-567.739,0,0
319787,104.425,-566.452,0,0
321088,100.314,-565.234,0,0
322390,94.0939,-562.927,0,0
323691,87.312,-557.412,0,0
324993,83.1414,-550.039,0,0
326295,80.4776,-543.376,0,0
327596,78.1843,-536.67,0,0
328898,76.702,-529.64,0,0
330200,76.8378,-522.426,0,0
331501.125,78.3817,-516.889,0,0
332802.75,79.666,-513.108,0,0
334104.375,79.7271,-510.245,0,0
335406.0,78.574,-507.173,0,0
336707.625,76.6877,-503.004,0,0
338009.25,75.3252,-497.415,0,0
339310.875,75.3066,-491.167,0,0
340612.5,76.8199,-484.84,0,0
341914.125,80.1862,-479.439,0,0
343215.75,84.8188,-476.547,0,0
344517.375,88.2172,-476.464,0,0
345819.0,89.4466,-477.119,0,0
347121,88.8362,-477.515,0,0
348422,87.3193,-476.996,0,0
349724,85.1374,-475.496,0,0
351025,83.0581,-473.049,0,0
352327,81.21,-469.761,0,0
353629,80.2629,-465.694,0,0
354930,80.7761,-462.142,0,0
356232,81.067,-459.84,0,0
357534,80.5528,-457.968,0,0
358835,78.9316,-455.464,0,0
360137,77.6279,-451.33,0,0
361438,77.6209,-446.977,0,0
362740.1,78.6195,-443.057,0,0
364041.725,79.7659,-440.21,0,0
365343.35,79.9314,-437.501,0,0
366644.975,80.0463,-433.62,0,0
367946.6,81.5469,-428.986,0,0
369248.225,84.6064,-424.855,0,0
370549.85,89.086,-421.891,0,0
371851.475,94.4238,-421.231,0,0
373153.1,98.7551,-423.519,0,0
374454.725,100.022,-427.169,0,0
375756.35,99.0089,-429.522,0,0
377057.975,97.6266,-430.381,0,0
378359.6,96.4724,-430.906,0,0
379661,94.9001,-431.133,0,0
380963,93.2994,-431.05,0,0
382264,91.8992,-430.012,0,0
383566,92.095,-430.136,0,0
384868,90.3004,-432.526,0,0
386169,85.451,-433.568,0,0
387471,79.9745,-431.521,0,0
388773,76.3309,-426.944,0,0
390074,75.6684,-422.49,0,0
391376,76.5815,-420.448,0,0
392677,75.6492,-420.968,0,0
393979,71.8226,-420.673,0,0
395280.7,67.4995,-417.921,0,0
396582.325,64.1375,-413.751,0,0
397883.95,61.8494,-409.147,0,0
399185.575,60.2581,-404.421,0,0
400006.6,59.612,-401.294,0,0