File: Accelerated corrosion test data/2025-10-06_14-56-48/sample_1.csv
Frequency (Hz),Impedance (ohms),Phase (Radians),Temperature (C),Humidity (%)
10000.0,241.095,-12126.4,0,0
11301.625,215.466,-10741.4,0,0
12603.25,195.665,-9648.79,0,0
13904.875,182.907,-8731.51,0,0
15206.5,184.692,-8005,0,0
16508.125,156.119,-7381.93,0,0
17809.75,147.31,-6850.93,0,0
19111.375,136.348,-6383.95,0,0
20413.0,156.749,-5946.57,0,0
21714.625,139.21,-5633.58,0,0
23016.25,123.775,-5327.59,0,0
24317.875,112.894,-5037.7,0,0
25619.5,105.744,-4774.77,0,0
26921.1,113.95,-4529.81,0,0
28222.7,111.185,-4325.5,0,0
29524.4,106.745,-4159.67,0,0
30826,101.302,-3975.08,0,0
32127.6,98.6827,-3816.5,0,0
33429.2,89.3801,-3674.94,0,0
34730.9,82.5557,-3533.7,0,0
36032.5,78.0743,-3403.21,0,0
37334.1,75.588,-3282.12,0,0
38635.7,73.6595,-3168.74,0,0
39937.4,71.4459,-3063.02,0,0
41239,72.1927,-2964.26,0,0
42540.6,70.8324,-2873.16,0,0
43842.225,68.0409,-2786.46,0,0
45143.85,69.1373,-2706.1,0,0
46445.475,66.1244,-2630.3,0,0
47747.1,64.0077,-2556.63,0,0
49048.725,61.4618,-2486.92,0,0
50350.35,60.0736,-2420.8,0,0
51651.975,59.0723,-2357.52,0,0
52953.6,57.9618,-2296.88,0,0
54255.225,57.1005,-2240.23,0,0
55556.85,56.3273,-2185.19,0,0
56858.475,55.1731,-2132.62,0,0
58160.1,55.073,-2082.24,0,0
59461.7,54.7872,-2034.57,0,0
60763.3,54.8657,-1989.01,0,0
62065,53.353,-1945.38,0,0
63366.6,52.8377,-1902.01,0,0
64668.2,53.379,-1860.16,0,0
65969.8,55.3745,-1822.63,0,0
67271.5,54.0608,-1786.19,0,0
68573.1,53.8314,-1751.04,0,0
69874.7,52.4306,-1717.46,0,0
71176.3,50.7978,-1682.78,0,0
72478,48.8735,-1649.29,0,0
73779.6,48.4661,-1616.04,0,0
75081.2,48.8188,-1584.08,0,0
76382.825,49.5516,-1553.13,0,0
77684.45,50.4895,-1523.94,0,0
78986.075,52.2274,-1496.56,0,0
80287.7,51.3823,-1470.28,0,0
81589.325,51.2265,-1442.51,0,0
82890.95,51.6245,-1415.73,0,0
84192.575,53.3482,-1389.86,0,0
85494.2,55.5027,-1365.57,0,0
86795.825,56.6213,-1342.44,0,0
88097.45,56.9377,-1319.41,0,0
89399.075,58.2316,-1295.19,0,0
90700.7,62.012,-1271.64,0,0
92002.3,68.5139,-1251.1,0,0
93303.9,75.6239,-1234.69,0,0
94605.6,73.3959,-1227.03,0,0
95907.2,66.8294,-1208.62,0,0
97208.8,64.3969,-1187.81,0,0
98510.4,64.2784,-1167.67,0,0
99812.1,63.3323,-1147.38,0,0
101114,63.7339,-1127.88,0,0
102415,63.4282,-1106.19,0,0
103717,68.5301,-1084.98,0,0
105019,75.4307,-1067.68,0,0
106320.175,82.2379,-1051.98,0,0
107621.8,88.8038,-1040.06,0,0
108923.425,93.3937,-1029.97,0,0
110225.05,93.9709,-1022.02,0,0
111526.675,94.1921,-1009.7,0,0
112828.3,95.2785,-1000.36,0,0
114129.925,93.6835,-992.082,0,0
115431.55,89.4095,-981.742,0,0
116733.175,84.8416,-968.596,0,0
118034.8,81.3723,-953.416,0,0
119336.425,80.5317,-937.827,0,0
120638.05,81.583,-923.954,0,0
121939.675,80.6508,-911.525,0,0
123241,79.2478,-897.441,0,0
124543,79.2093,-882.536,0,0
125845,79.9997,-868,0,0
127146,81.3288,-853.88,0,0
128448,83.3768,-839.391,0,0
129749,86.3462,-825.264,0,0
131051,91.4657,-812.951,0,0
132353,95.2451,-802.766,0,0
133654,98.0218,-792.817,0,0
134956,99.7501,-782.303,0,0
136258,102.698,-771.397,0,0
137559,106.814,-761.38,0,0
138860.775,108.95,-755.099,0,0
140162.4,108.579,-746.225,0,0
141464.025,108.977,-735.812,0,0
142765.65,109.932,-725.135,0,0
144067.275,111.001,-714.371,0,0
145368.9,113.176,-703.188,0,0
146670.525,115.807,-692.32,0,0
147972.15,118.043,-682.722,0,0
149273.775,120.297,-673.012,0,0
150575.4,121.494,-663.643,0,0
151877.025,120.776,-651.798,0,0
153178.65,121.921,-636.441,0,0
154480,126.31,-620.444,0,0
155782,134.442,-604.218,0,0
157084,146.62,-589.824,0,0
158385,159.084,-580.492,0,0
159687,170.201,-570.074,0,0
160988,188.124,-560.64,0,0
162290,205.638,-561.242,0,0
163592,219.17,-563.248,0,0
164893,231.021,-566.95,0,0
166195,242.675,-575.983,0,0
167497,245.187,-588.91,0,0
168798,240.191,-598.114,0,0
170100,231.938,-601.194,0,0
171401.375,224.75,-599.172,0,0
172703.0,218.366,-594.862,0,0
174004.625,214.918,-586.74,0,0
175306.25,215.766,-580.071,0,0
176607.875,216.413,-577.638,0,0
177909.5,214.36,-574.847,0,0
179211.125,210.942,-571.724,0,0
180512.75,204.788,-568.449,0,0
181814.375,197.592,-559.071,0,0
183116.0,191.401,-548.708,0,0
184417.625,187.31,-533.422,0,0
185719.25,187.328,-518.278,0,0
187021,189.021,-503.552,0,0
188322,191.305,-488.965,0,0
189624,195.468,-472.806,0,0
190926,201.71,-457.649,0,0
192227,208.523,-441.703,0,0
193529,216.854,-425.512,0,0
194831,227.137,-408.346,0,0
196132,240.375,-389.824,0,0
197434,258.499,-370.926,0,0
198735,280.732,-356.024,0,0
200037,302.766,-341.683,0,0
201339,331.547,-325.186,0,0
202640.35,369.421,-313.805,0,0
203941.975,413.705,-310.853,0,0
205243.6,464.981,-324.385,0,0
206545.225,505.016,-356.325,0,0
207846.85,528.29,-396.469,0,0
209148.475,537.91,-434.15,0,0
210450.1,533.449,-463.989,0,0
211751.725,526.109,-479.441,0,0
213053.35,528.572,-483.38,0,0
214354.975,538.795,-493.811,0,0
215656.6,549.328,-505.793,0,0
216958.225,560.223,-517.111,0,0
218259.85,580.243,-533.207,0,0
219561,597.501,-555.087,0,0
220863,617.694,-584.037,0,0
222165,634.76,-626.599,0,0
223466,637.396,-678.711,0,0
224768,625.917,-730.418,0,0
226070,602.407,-781.766,0,0
227371,563.337,-824.147,0,0
228673,515.325,-853.107,0,0
229974,467.038,-865.76,0,0
231276,423.876,-866.501,0,0
232578,389.849,-861.402,0,0
233879,360.736,-856.846,0,0
235180.95,333.76,-849.693,0,0
236482.575,309.841,-842.37,0,0
237784.2,287.694,-833.96,0,0
239085.825,266.53,-824.798,0,0
240387.45,246.939,-812.603,0,0
241689.075,231.041,-800.299,0,0
242990.7,217.098,-787.577,0,0
244292.325,205.214,-775.862,0,0
245593.95,193.77,-764.286,0,0
246895.575,182.623,-752.567,0,0
248197.2,173.222,-739.799,0,0
249498.825,165.25,-727.199,0,0
250800,158.423,-714.947,0,0
252102,152.432,-702.605,0,0
253404,147.441,-690.024,0,0
254705,143.983,-677.043,0,0
256007,142.379,-665.019,0,0
257309,141.243,-653.528,0,0
258610,141.328,-641.797,0,0
259912,143.804,-630.552,0,0
261213,148.272,-621.403,0,0
262515,153.171,-614.694,0,0
263817,158.917,-609.225,0,0
265118,165.764,-607.378,0,0
266420,170.975,-610.165,0,0
267721.55,171.067,-616.36,0,0
269023.175,164.186,-620.989,0,0
270324.8,154.172,-619.558,0,0
271626.425,146.316,-612.855,0,0
272928.05,141.83,-604.367,0,0
274229.675,140.494,-595.927,0,0
275531.3,140.939,-588.954,0,0
276832.925,142.712,-582.769,0,0
278134.55,145.454,-579.421,0,0
279436.175,147.156,-577.945,0,0
280737.8,146.774,-577.724,0,0
282039.425,144.711,-577.159,0,0
283341,141.211,-575.172,0,0
284643,137.949,-572.085,0,0
285944,134.162,-568.399,0,0
287246,129.817,-562.867,0,0
288548,127.491,-554.336,0,0
289849,129.499,-546.439,0,0
291151,132.431,-542.282,0,0
292452,133.064,-539.283,0,0
293754,132.288,-534.923,0,0
295056,132.796,-528.129,0,0
296357,136.344,-521.287,0,0
297659,141.532,-516.713,0,0
298960.525,147.413,-513.539,0,0
300262.15,153.073,-512.536,0,0
301563.775,158.599,-511.494,0,0
302865.4,165.502,-512.89,0,0
304167.025,170.874,-516.802,0,0
305468.65,174.504,-521.621,0,0
306770.275,177.352,-527.721,0,0
308071.9,177.895,-534.994,0,0
309373.525,175.794,-541.853,0,0
310675.15,173.036,-548.089,0,0
311976.775,167.973,-554.776,0,0
313278.4,160.314,-559.724,0,0
314580,152.229,-561.911,0,0
315882,144.596,-562.864,0,0
317183,136.527,-562.966,0,0
318485,128.579,-561.273,0,0
319787,121.208,-558.692,0,0
321088,114.383,-554.85,0,0
322390,108.448,-550.127,0,0
323691,103.794,-544.283,0,0
324993,100.962,-538.706,0,0
326295,99.3536,-533.873,0,0
327596,98.3088,-530.114,0,0
328898,97.3371,-527.411,0,0
330200,95.8693,-525.625,0,0
331501.125,93.7044,-524.205,0,0
332802.75,90.5843,-522.865,0,0
334104.375,86.8452,-520.682,0,0
335406.0,82.9192,-517.883,0,0
336707.625,79.2222,-514.334,0,0
338009.25,75.9409,-510.43,0,0
339310.875,73.0587,-506.359,0,0
340612.5,70.4339,-502.078,0,0
341914.125,68.2625,-497.846,0,0
343215.75,66.2049,-493.774,0,0
344517.375,64.2246,-489.693,0,0
345819.0,62.1893,-485.381,0,0
347121,60.5069,-480.856,0,0
348422,59.1058,-476.142,0,0
349724,58.0962,-471.356,0,0
351025,57.6704,-466.83,0,0
352327,57.4097,-462.549,0,0
353629,57.1152,-458.499,0,0
354930,56.8866,-454.42,0,0
356232,57.0418,-450.304,0,0
357534,57.4136,-446.613,0,0
358835,57.6576,-443.166,0,0
360137,57.9194,-439.67,0,0
361438,58.293,-436.346,0,0
362740.1,58.5124,-433.175,0,0
364041.725,58.7187,-429.779,0,0
365343.35,59.1245,-426.366,0,0
366644.975,59.452,-423.078,0,0
367946.6,59.694,-419.266,0,0
369248.225,60.5515,-414.682,0,0
370549.85,63.0917,-410.327,0,0
371851.475,66.2824,-407.17,0,0
373153.1,69.8019,-405.135,0,0
374454.725,72.9881,-404.403,0,0
375756.35,75.1465,-404.268,0,0
377057.975,76.7689,-403.88,0,0
378359.6,78.5054,-403.92,0,0
379661,79.7076,-404.278,0,0
380963,80.853,-404.644,0,0
382264,81.8253,-406.236,0,0
383566,81.103,-408.291,0,0
384868,78.9004,-409.579,0,0
386169,76.225,-409.854,0,0
387471,73.0742,-409.098,0,0
388773,70.475,-407.009,0,0
390074,68.8092,-404.691,0,0
391376,67.6798,-402.77,0,0
392677,66.3841,-401.272,0,0
393979,64.4078,-399.638,0,0
395280.7,62.2634,-397.363,0,0
396582.325,60.2776,-394.347,0,0
397883.95,58.7959,-391.137,0,0
399185.575,57.6814,-387.622,0,0
400006.6,57.1364,-385.355,0,0