File: Accelerated corrosion test data/2025-10-06_14-56-48/sample_2.csv
Frequency (Hz),Impedance (ohms),Phase (Radians),Temperature (C),Humidity (%)
10000.0,235.235,-11351.4,0,0
11301.625,208.617,-10054.4,0,0
12603.25,188.138,-9026.9,0,0
13904.875,188.663,-8185.66,0,0
15206.5,170.507,-7497.48,0,0
16508.125,146.427,-6911.07,0,0
17809.75,136.099,-6407.03,0,0
19111.375,131.224,-5970.42,0,0
20413.0,120.434,-5589.84,0,0
21714.625,129.311,-5261.78,0,0
23016.25,113.708,-4968.29,0,0
24317.875,104.593,-4704.27,0,0
25619.5,98.5923,-4463.3,0,0
26921.1,96.587,-4246.21,0,0
28222.7,91.7977,-4048.06,0,0
29524.4,93.7231,-3865.49,0,0
30826,88.7133,-3712.14,0,0
32127.6,83.2418,-3559.29,0,0
33429.2,80.392,-3421.48,0,0
34730.9,76.4659,-3291.8,0,0
36032.5,74.0349,-3171.12,0,0
37334.1,71.9016,-3058.43,0,0
38635.7,69.5314,-2954.17,0,0
39937.4,67.5722,-2855.82,0,0
41239,66.3885,-2763.59,0,0
42540.6,65.1521,-2677.62,0,0
43842.225,63.4281,-2596.28,0,0
45143.85,62.7065,-2519.12,0,0
46445.475,62.0194,-2446.76,0,0
47747.1,61.1739,-2378.21,0,0
49048.725,61.057,-2314.66,0,0
50350.35,58.5439,-2252.93,0,0
51651.975,57.0676,-2194.28,0,0
52953.6,55.6516,-2137.34,0,0
54255.225,54.6808,-2083.07,0,0
55556.85,54.4168,-2031.21,0,0
56858.475,54.2424,-1981.82,0,0
58160.1,54.4102,-1934.82,0,0
59461.7,55.0294,-1889.15,0,0
60763.3,56.7796,-1846.97,0,0
62065,59.0985,-1808.89,0,0
63366.6,56.1501,-1772.58,0,0
64668.2,53.121,-1734.59,0,0
65969.8,51.062,-1695.64,0,0
67271.5,51.7406,-1658.22,0,0
68573.1,54.143,-1624.69,0,0
69874.7,56.1786,-1594.56,0,0
71176.3,52.6417,-1566.51,0,0
72478,48.0889,-1536.03,0,0
73779.6,45.6409,-1503.39,0,0
75081.2,45.7045,-1471.36,0,0
76382.825,47.3966,-1441.18,0,0
77684.45,50.0988,-1413.16,0,0
78986.075,53.3265,-1388.99,0,0
80287.7,52.1596,-1367.62,0,0
81589.325,49.5859,-1342.66,0,0
82890.95,48.4309,-1317.12,0,0
84192.575,49.3245,-1292.39,0,0
85494.2,50.1514,-1269.21,0,0
86795.825,51.0766,-1247.22,0,0
88097.45,51.7115,-1226.46,0,0
89399.075,51.7389,-1204.94,0,0
90700.7,51.9619,-1184.8,0,0
92002.3,53.4171,-1163.85,0,0
93303.9,55.9966,-1144.91,0,0
94605.6,55.714,-1128.61,0,0
95907.2,55.4795,-1109.34,0,0
97208.8,58.4121,-1092.75,0,0
98510.4,58.1886,-1079.26,0,0
99812.1,53.6306,-1064.74,0,0
101114,50.655,-1046.34,0,0
102415,47.3333,-1026.43,0,0
103717,46.6307,-1005.72,0,0
105019,50.2221,-985.268,0,0
106320.175,55.0771,-968.829,0,0
107621.8,57.9633,-956.645,0,0
108923.425,56.5064,-944.7,0,0
110225.05,53.4297,-929.088,0,0
111526.675,52.7663,-911.417,0,0
112828.3,53.2158,-894.311,0,0
114129.925,55.0718,-877.315,0,0
115431.55,57.9793,-861.315,0,0
116733.175,61.6593,-846.47,0,0
118034.8,65.3892,-833.26,0,0
119336.425,68.6397,-821.583,0,0
120638.05,70.1618,-811.566,0,0
121939.675,68.9593,-800.134,0,0
123241,67.7667,-787.002,0,0
124543,67.1284,-772.957,0,0
125845,67.2631,-757.875,0,0
127146,68.8711,-742.721,0,0
128448,71.3459,-728.513,0,0
129749,73.6774,-715.173,0,0
131051,75.8364,-701.847,0,0
132353,77.5314,-688.857,0,0
133654,79.1005,-674.595,0,0
134956,81.1188,-660.083,0,0
136258,83.9624,-645.207,0,0
137559,87.4481,-630.158,0,0
138860.775,90.931,-615.36,0,0
140162.4,94.5534,-598.912,0,0
141464.025,100.812,-580.267,0,0
142765.65,110.907,-562.35,0,0
144067.275,122.985,-547.689,0,0
145368.9,135.241,-533.636,0,0
146670.525,148.947,-520.761,0,0
147972.15,165.502,-508.352,0,0
149273.775,186.396,-498.214,0,0
150575.4,212.968,-498.797,0,0
151877.025,230.839,-513.071,0,0
153178.65,233.703,-528.593,0,0
154480,227.946,-536.052,0,0
155782,221.536,-535.584,0,0
157084,216.658,-531.314,0,0
158385,214.45,-522.551,0,0
159687,215.363,-515.261,0,0
160988,217.689,-508.389,0,0
162290,224.675,-504.88,0,0
163592,220.795,-510.381,0,0
164893,207.318,-506.511,0,0
166195,194.903,-492.151,0,0
167497,188.708,-471.359,0,0
168798,187.306,-448.679,0,0
170100,190.02,-427.146,0,0
171401.375,194.756,-403.35,0,0
172703.0,204.659,-378.484,0,0
174004.625,219.199,-353.211,0,0
175306.25,241.991,-329.563,0,0
176607.875,268.68,-314.056,0,0
177909.5,299.314,-306.354,0,0
179211.125,317.052,-308.938,0,0
180512.75,324.954,-306.811,0,0
181814.375,331.821,-288.796,0,0
183116.0,349.914,-266.147,0,0
184417.625,378.446,-242.479,0,0
185719.25,417.161,-224.692,0,0
187021,459.034,-217.534,0,0
188322,503.572,-214.059,0,0
189624,544.375,-215.953,0,0
190926,590.896,-215.135,0,0
192227,651.87,-221.537,0,0
193529,722.117,-248.851,0,0
194831,779.693,-299.769,0,0
196132,826.053,-362.85,0,0
197434,859.459,-431.35,0,0
198735,880.878,-508.43,0,0
200037,882.249,-589.288,0,0
201339,868.268,-675.287,0,0
202640.35,825.864,-752.332,0,0
203941.975,768.644,-802.88,0,0
205243.6,714.951,-838.401,0,0
206545.225,656.033,-857.175,0,0
207846.85,610.22,-862.347,0,0
209148.475,575.683,-865.802,0,0
210450.1,538.765,-874.652,0,0
211751.725,497.171,-873.865,0,0
213053.35,463.372,-863.383,0,0
214354.975,435.707,-849.879,0,0
215656.6,414.668,-836.485,0,0
216958.225,397.224,-822.073,0,0
218259.85,385.398,-807.972,0,0
219561,377.509,-796,0,0
220863,371.906,-786.655,0,0
222165,370.253,-778.146,0,0
223466,371.02,-776.578,0,0
224768,368.237,-779.18,0,0
226070,362.889,-781.013,0,0
227371,359.772,-784.292,0,0
228673,355.338,-792.542,0,0
229974,344.344,-803.739,0,0
231276,327.537,-811.619,0,0
232578,308.754,-815.271,0,0
233879,289.15,-815.232,0,0
235180.95,270.737,-812.568,0,0
236482.575,252.551,-807.775,0,0
237784.2,235.111,-800.579,0,0
239085.825,219.679,-791.121,0,0
240387.45,206.474,-780.696,0,0
241689.075,195.139,-770.292,0,0
242990.7,185.241,-759.759,0,0
244292.325,176.271,-750.371,0,0
245593.95,167.392,-741.555,0,0
246895.575,156.536,-733.123,0,0
248197.2,145.007,-720.808,0,0
249498.825,136.009,-706.333,0,0
250800,129.108,-690.634,0,0
252102,125.024,-674.275,0,0
253404,123.461,-658.681,0,0
254705,123.594,-643.74,0,0
256007,125.737,-628.476,0,0
257309,131.091,-615.172,0,0
258610,137.483,-604.139,0,0
259912,145.006,-594.392,0,0
261213,154.511,-587.081,0,0
262515,164.184,-584.001,0,0
263817,172.358,-583.652,0,0
265118,177.664,-586.368,0,0
266420,178.674,-588.11,0,0
267721.55,179.536,-587.96,0,0
269023.175,178.925,-586.717,0,0
270324.8,179.447,-582.189,0,0
271626.425,184.515,-576.669,0,0
272928.05,193.002,-574.093,0,0
274229.675,205.616,-576.142,0,0
275531.3,217.303,-588.665,0,0
276832.925,218.35,-608.497,0,0
278134.55,208.004,-623.546,0,0
279436.175,194.939,-632.043,0,0
280737.8,181.607,-635.966,0,0
282039.425,168.267,-637.837,0,0
283341,152.923,-635.683,0,0
284643,141.77,-628.986,0,0
285944,130.085,-623.566,0,0
287246,117.526,-611.862,0,0
288548,111.098,-594.13,0,0
289849,115.564,-575.213,0,0
291151,128.898,-565.336,0,0
292452,142.179,-567.267,0,0
293754,145.59,-576.402,0,0
295056,141.53,-579.529,0,0
296357,143.189,-580.27,0,0
297659,141.025,-588.259,0,0
298960.525,132.749,-592.239,0,0
300262.15,123.89,-592.63,0,0
301563.775,116.094,-589.295,0,0
302865.4,112.485,-585.756,0,0
304167.025,108.461,-585.995,0,0
305468.65,100.715,-585.908,0,0
306770.275,91.8988,-582.408,0,0
308071.9,84.7056,-576.59,0,0
309373.525,79.0025,-570.298,0,0
310675.15,74.273,-563.849,0,0
311976.775,70.4488,-556.975,0,0
313278.4,67.7984,-550.415,0,0
314580,65.4873,-544.389,0,0
315882,63.4775,-538.322,0,0
317183,61.9548,-532.335,0,0
318485,61.071,-526.672,0,0
319787,60.2151,-521.679,0,0
321088,59.1774,-516.785,0,0
322390,58.119,-511.832,0,0
323691,56.8336,-506.446,0,0
324993,56.4689,-499.794,0,0
326295,58.6263,-493.436,0,0
327596,61.7661,-489.899,0,0
328898,63.581,-487.75,0,0
330200,64.8082,-486.101,0,0
331501.125,65.2246,-485.156,0,0
332802.75,64.2272,-484.588,0,0
334104.375,61.8335,-482.872,0,0
335406.0,59.5604,-479.783,0,0
336707.625,57.6932,-476.268,0,0
338009.25,56.1288,-472.174,0,0
339310.875,55.0767,-467.882,0,0
340612.5,54.6701,-463.484,0,0
341914.125,54.6461,-459.214,0,0
343215.75,54.8977,-455.004,0,0
344517.375,55.5372,-450.985,0,0
345819.0,56.6533,-447.263,0,0
347121,57.827,-443.934,0,0
348422,59.1852,-440.844,0,0
349724,60.7324,-438.066,0,0
351025,62.4186,-435.861,0,0
352327,63.671,-434.132,0,0
353629,64.6943,-432.387,0,0
354930,65.7157,-430.804,0,0
356232,66.5977,-429.17,0,0
357534,67.8338,-427.686,0,0
358835,69.3386,-426.815,0,0
360137,70.3441,-426.87,0,0
361438,70.4886,-427.174,0,0
362740.1,69.9874,-427.421,0,0
364041.725,68.7451,-427.367,0,0
365343.35,67.1014,-426.653,0,0
366644.975,65.3993,-425.226,0,0
367946.6,64.3177,-423.13,0,0
369248.225,64.12,-421.507,0,0
370549.85,63.5254,-420.733,0,0
371851.475,62.1621,-419.707,0,0
373153.1,61.0288,-418.263,0,0
374454.725,59.8317,-417.033,0,0
375756.35,58.3734,-415.55,0,0
377057.975,56.9796,-413.94,0,0
378359.6,55.5427,-412.656,0,0
379661,52.8811,-411.059,0,0
380963,50.6893,-407.294,0,0
382264,50.6485,-404.452,0,0
383566,49.7356,-402.765,0,0
384868,48.1217,-400.621,0,0
386169,46.4667,-397.952,0,0
387471,44.959,-394.683,0,0
388773,44.125,-391.143,0,0
390074,44.0315,-387.661,0,0
391376,44.4459,-385.127,0,0
392677,43.9918,-383.387,0,0
393979,42.534,-381.068,0,0
395280.7,41.1442,-377.718,0,0
396582.325,40.4896,-373.862,0,0
397883.95,40.5155,-370.028,0,0
399185.575,40.9738,-366.475,0,0
400006.6,41.3422,-364.418,0,0