File: Accelerated corrosion test data/2025-10-14_18-00-03/sample_4.csv
Frequency (Hz),Impedance (ohms),Phase (Radians),Temperature (C),Humidity (%)
10000.0,265.79,-11837.6,0,0
11301.625,236.165,-10487.6,0,0
12603.25,214.855,-9408.95,0,0
13904.875,194.805,-8531.34,0,0
15206.5,182.571,-7808.8,0,0
16508.125,191.918,-7198.36,0,0
17809.75,156.77,-6690.2,0,0
19111.375,146.539,-6234.59,0,0
20413.0,141.56,-5835.56,0,0
21714.625,145.235,-5491.16,0,0
23016.25,125.92,-5192.37,0,0
24317.875,116.909,-4908.74,0,0
25619.5,113.354,-4655.56,0,0
26921.1,107.722,-4427.35,0,0
28222.7,121.081,-4225.5,0,0
29524.4,113.23,-4045.73,0,0
30826,99.6054,-3874.85,0,0
32127.6,101.199,-3714.98,0,0
33429.2,90.6221,-3574.28,0,0
34730.9,85.5547,-3436.42,0,0
36032.5,82.4469,-3309.24,0,0
37334.1,80.4175,-3190.99,0,0
38635.7,77.5765,-3079.38,0,0
39937.4,77.7777,-2973.82,0,0
41239,80.7367,-2879.96,0,0
42540.6,79.5684,-2791.9,0,0
43842.225,74.0426,-2708.79,0,0
45143.85,71.5972,-2627.71,0,0
46445.475,70.9707,-2550.49,0,0
47747.1,70.8964,-2481.33,0,0
49048.725,66.5961,-2412.15,0,0
50350.35,65.1259,-2344.93,0,0
51651.975,64.4406,-2280.51,0,0
52953.6,66.1575,-2218.02,0,0
54255.225,74.4613,-2161.62,0,0
55556.85,72.2456,-2118.67,0,0
56858.475,66.363,-2064.65,0,0
58160.1,67.2888,-2012.39,0,0
59461.7,71.6285,-1962.48,0,0
60763.3,81.1737,-1924.61,0,0
62065,70.7269,-1891.38,0,0
63366.6,64.7878,-1846.1,0,0
64668.2,65.2928,-1803.05,0,0
65969.8,67.4927,-1762.41,0,0
67271.5,71.3569,-1726.73,0,0
68573.1,74.2932,-1698.09,0,0
69874.7,66.5081,-1667.64,0,0
71176.3,65.0757,-1633.41,0,0
72478,59.5501,-1602.04,0,0
73779.6,58.3671,-1565.76,0,0
75081.2,60.4928,-1533.02,0,0
76382.825,62.7167,-1504.59,0,0
77684.45,65.5399,-1477.03,0,0
78986.075,63.91,-1454.46,0,0
80287.7,61.0342,-1427.48,0,0
81589.325,60.3767,-1401.49,0,0
82890.95,59.1956,-1376.41,0,0
84192.575,58.0859,-1351.54,0,0
85494.2,57.2964,-1327.2,0,0
86795.825,56.7673,-1303.61,0,0
88097.45,55.3309,-1281.18,0,0
89399.075,53.7152,-1257.13,0,0
90700.7,53.6511,-1233.96,0,0
92002.3,53.9391,-1210.73,0,0
93303.9,55.0736,-1190,0,0
94605.6,53.7043,-1169.36,0,0
95907.2,53.4628,-1146.84,0,0
97208.8,54.4249,-1125.2,0,0
98510.4,55.8514,-1103.67,0,0
99812.1,58.6221,-1083.02,0,0
101114,63.1167,-1064.77,0,0
102415,62.1171,-1050.55,0,0
103717,59.4213,-1027.64,0,0
105019,63.5452,-1004.21,0,0
106320.175,70.4315,-983.951,0,0
107621.8,77.5175,-966.406,0,0
108923.425,86.159,-950.456,0,0
110225.05,94.3004,-938.546,0,0
111526.675,100.023,-928.515,0,0
112828.3,104.377,-919.264,0,0
114129.925,107.003,-910.815,0,0
115431.55,108.158,-902.696,0,0
116733.175,106.909,-894.09,0,0
118034.8,104.117,-882.829,0,0
119336.425,104.762,-867.993,0,0
120638.05,110.066,-862.775,0,0
121939.675,102.916,-855.778,0,0
123241,98.3658,-843.26,0,0
124543,95.1968,-830.39,0,0
125845,93.0897,-817.927,0,0
127146,89.4893,-806.145,0,0
128448,85.0073,-793.794,0,0
129749,79.0123,-778.696,0,0
131051,74.8632,-760.805,0,0
132353,72.8785,-742.152,0,0
133654,72.4716,-723.496,0,0
134956,73.3301,-704.799,0,0
136258,75.5958,-686.532,0,0
137559,78.3251,-669.454,0,0
138860.775,80.3628,-651.518,0,0
140162.4,83.8189,-632.692,0,0
141464.025,88.7967,-613.825,0,0
142765.65,94.7068,-595.324,0,0
144067.275,101.558,-576.799,0,0
145368.9,109.744,-557.949,0,0
146670.525,119.788,-539.531,0,0
147972.15,130.878,-521.733,0,0
149273.775,143.647,-503.933,0,0
150575.4,159.035,-485.93,0,0
151877.025,178.2,-470.31,0,0
153178.65,200.756,-459.334,0,0
154480,221.606,-455.193,0,0
155782,238.118,-451.52,0,0
157084,252.288,-448.448,0,0
158385,268.167,-442.243,0,0
159687,290.134,-440.773,0,0
160988,306.873,-449.511,0,0
162290,313.286,-454.559,0,0
163592,318.858,-454.041,0,0
164893,328.514,-448.423,0,0
166195,344.964,-441.81,0,0
167497,372.083,-444.219,0,0
168798,396.381,-462.371,0,0
170100,410.836,-492.357,0,0
171401.375,402.975,-528.635,0,0
172703.0,376.361,-551.214,0,0
174004.625,343.778,-553.405,0,0
175306.25,317.46,-540.118,0,0
176607.875,301.906,-517.415,0,0
177909.5,297.062,-494.468,0,0
179211.125,297.087,-473.693,0,0
180512.75,300.92,-455.377,0,0
181814.375,304.899,-438.469,0,0
183116.0,308.394,-420.232,0,0
184417.625,314.251,-398.282,0,0
185719.25,324.68,-374.261,0,0
187021,339.767,-349.06,0,0
188322,360.858,-322.843,0,0
189624,389.275,-297.267,0,0
190926,426.281,-274.796,0,0
192227,471.057,-258.223,0,0
193529,521.923,-250.734,0,0
194831,575.35,-253.009,0,0
196132,630.322,-262.676,0,0
197434,690.315,-282.363,0,0
198735,752.46,-318.648,0,0
200037,808.482,-377.779,0,0
201339,842.869,-453.824,0,0
202640.35,851.465,-530.724,0,0
203941.975,846.901,-600.047,0,0
205243.6,827.932,-662.281,0,0
206545.225,805.412,-715.679,0,0
207846.85,772.775,-772.544,0,0
209148.475,723.104,-813.437,0,0
210450.1,672.82,-834.094,0,0
211751.725,628.946,-841.082,0,0
213053.35,595.24,-840.678,0,0
214354.975,571.28,-835.004,0,0
215656.6,560.004,-838.094,0,0
216958.225,542.245,-848.748,0,0
218259.85,523.223,-856.923,0,0
219561,504.211,-866.167,0,0
220863,480.983,-875.902,0,0
222165,455.678,-882.095,0,0
223466,429.975,-885.064,0,0
224768,404.993,-887.186,0,0
226070,376.377,-887.367,0,0
227371,346.726,-881.818,0,0
228673,317.954,-870.192,0,0
229974,294.736,-852.985,0,0
231276,277.006,-834.644,0,0
232578,263.561,-816.397,0,0
233879,253.87,-799.045,0,0
235180.95,247.163,-783.175,0,0
236482.575,241.66,-769.456,0,0
237784.2,237.697,-755.799,0,0
239085.825,236.532,-744.626,0,0
240387.45,235.144,-736.606,0,0
241689.075,232.555,-730.459,0,0
242990.7,228.224,-725.038,0,0
244292.325,222.376,-719.099,0,0
245593.95,215.539,-711.014,0,0
246895.575,210.399,-701.309,0,0
248197.2,207.513,-692.292,0,0
249498.825,204.276,-684.105,0,0
250800,201.1,-676.74,0,0
252102,195.543,-669.634,0,0
253404,188.565,-658.348,0,0
254705,184.154,-644.126,0,0
256007,182.267,-626.527,0,0
257309,186.474,-607.526,0,0
258610,196.536,-589.865,0,0
259912,212.495,-576.784,0,0
261213,231.184,-568.327,0,0
262515,251.442,-566.575,0,0
263817,273.063,-572.714,0,0
265118,288.91,-586.779,0,0
266420,299.281,-604.458,0,0
267721.55,303.228,-625.542,0,0
269023.175,296.797,-648.229,0,0
270324.8,281.24,-660.335,0,0
271626.425,270.629,-666.204,0,0
272928.05,261.103,-673.481,0,0
274229.675,248.849,-681.355,0,0
275531.3,230.919,-686.834,0,0
276832.925,210.625,-685.171,0,0
278134.55,191.959,-674.384,0,0
279436.175,182.933,-658.171,0,0
280737.8,181.852,-647.102,0,0
282039.425,179.495,-639.831,0,0
283341,179.746,-632.571,0,0
284643,179.061,-629.619,0,0
285944,175.709,-627.113,0,0
287246,170.099,-621.644,0,0
288548,165.755,-611.594,0,0
289849,169.219,-598.603,0,0
291151,179.882,-591.56,0,0
292452,192.17,-593.287,0,0
293754,199.582,-603.472,0,0
295056,198.566,-616.614,0,0
296357,188.955,-626.76,0,0
297659,176.788,-629.513,0,0
298960.525,166.98,-628.345,0,0
300262.15,158.371,-626.53,0,0
301563.775,149.872,-623.238,0,0
302865.4,142.606,-618.743,0,0
304167.025,135.983,-613.258,0,0
305468.65,131.077,-606.936,0,0
306770.275,127.692,-600.753,0,0
308071.9,125.867,-595.591,0,0
309373.525,124.27,-592.171,0,0
310675.15,121.072,-589.437,0,0
311976.775,117.47,-585.523,0,0
313278.4,114.49,-581.01,0,0
314580,112.65,-576.677,0,0
315882,110.999,-573.013,0,0
317183,109.545,-570.272,0,0
318485,107.642,-568.094,0,0
319787,105.105,-566.713,0,0
321088,100.851,-565.597,0,0
322390,94.4946,-563.388,0,0
323691,87.8332,-557.716,0,0
324993,83.6279,-550.438,0,0
326295,80.851,-543.773,0,0
327596,78.4891,-537.003,0,0
328898,77.0118,-529.839,0,0
330200,77.0936,-522.694,0,0
331501.125,78.4913,-516.944,0,0
332802.75,80.1275,-513.048,0,0
334104.375,80.3429,-510.535,0,0
335406.0,78.9699,-507.554,0,0
336707.625,76.9376,-503.284,0,0
338009.25,75.5892,-497.633,0,0
339310.875,75.3976,-491.407,0,0
340612.5,76.8801,-484.915,0,0
341914.125,80.3724,-479.362,0,0
343215.75,85.0502,-476.465,0,0
344517.375,88.4606,-476.315,0,0
345819.0,89.7452,-477.104,0,0
347121,89.1772,-477.497,0,0
348422,87.4952,-477.018,0,0
349724,85.3289,-475.462,0,0
351025,83.1946,-472.945,0,0
352327,81.3699,-469.627,0,0
353629,80.693,-465.467,0,0
354930,80.9793,-462.304,0,0
356232,81.0217,-459.847,0,0
357534,80.4426,-457.653,0,0
358835,79.2398,-454.819,0,0
360137,78.2101,-451.209,0,0
361438,77.9627,-446.905,0,0
362740.1,78.9039,-443.034,0,0
364041.725,79.7438,-440.225,0,0
365343.35,79.7145,-437.151,0,0
366644.975,80.1793,-432.813,0,0
367946.6,81.9879,-428.448,0,0
369248.225,85.1247,-424.438,0,0
370549.85,89.3821,-421.589,0,0
371851.475,94.7217,-420.794,0,0
373153.1,99.2119,-422.956,0,0
374454.725,100.641,-426.956,0,0
375756.35,99.2781,-429.205,0,0
377057.975,98.0345,-430.07,0,0
378359.6,96.7941,-430.605,0,0
379661,95.2705,-430.904,0,0
380963,93.4348,-430.604,0,0
382264,92.6713,-429.222,0,0
383566,93.0558,-430.24,0,0
384868,90.5578,-432.701,0,0
386169,85.5898,-433.412,0,0
387471,80.0495,-431.143,0,0
388773,76.5834,-426.485,0,0
390074,76.2891,-421.953,0,0
391376,77.2287,-420.417,0,0
392677,75.719,-421.109,0,0
393979,71.7326,-420.296,0,0
395280.7,67.5978,-417.351,0,0
396582.325,64.6152,-413.216,0,0
397883.95,62.2659,-408.961,0,0
399185.575,60.4474,-404.232,0,0
400006.6,59.7073,-401.07,0,0