File: Accelerated corrosion test data/2025-10-14_18-00-03/sample_3.csv
Frequency (Hz),Impedance (ohms),Phase (Radians),Temperature (C),Humidity (%)
10000.0,254.448,-11801.2,0,0
11301.625,226.545,-10453,0,0
12603.25,205.03,-9381.72,0,0
13904.875,187.483,-8507.52,0,0
15206.5,175.714,-7777.07,0,0
16508.125,163.082,-7181.54,0,0
17809.75,158.613,-6653.5,0,0
19111.375,148.206,-6201.92,0,0
20413.0,160.544,-5802.75,0,0
21714.625,140.127,-5477.77,0,0
23016.25,129.024,-5172.93,0,0
24317.875,120.843,-4893.05,0,0
25619.5,114.505,-4646.43,0,0
26921.1,109.469,-4415.16,0,0
28222.7,105.257,-4207.95,0,0
29524.4,108.993,-4031.72,0,0
30826,102.209,-3858.95,0,0
32127.6,102.457,-3694.39,0,0
33429.2,99.8062,-3570.54,0,0
34730.9,88.5727,-3431.69,0,0
36032.5,84.1566,-3304.04,0,0
37334.1,81.043,-3185.95,0,0
38635.7,78.7721,-3076.04,0,0
39937.4,76.4249,-2973.51,0,0
41239,75.1699,-2876.49,0,0
42540.6,73.7869,-2786.54,0,0
43842.225,72.3874,-2700.94,0,0
45143.85,71.5866,-2621.08,0,0
46445.475,70.405,-2545.26,0,0
47747.1,70.9732,-2472.81,0,0
49048.725,69.1553,-2407.09,0,0
50350.35,67.1434,-2341.88,0,0
51651.975,66.8223,-2279.05,0,0
52953.6,67.1166,-2219.13,0,0
54255.225,70.2356,-2164.31,0,0
55556.85,67.3159,-2116.99,0,0
56858.475,62.2322,-2064.14,0,0
58160.1,61.7437,-2012.04,0,0
59461.7,62.2465,-1962.66,0,0
60763.3,63.7361,-1915.93,0,0
62065,65.6548,-1871.1,0,0
63366.6,69.5139,-1827.46,0,0
64668.2,78.7283,-1785.98,0,0
65969.8,93.5182,-1761.34,0,0
67271.5,76.1209,-1735.35,0,0
68573.1,76.6905,-1697.95,0,0
69874.7,76.1785,-1668.79,0,0
71176.3,70.8477,-1637.75,0,0
72478,69.6474,-1605.19,0,0
73779.6,67.8684,-1576.85,0,0
75081.2,64.2006,-1548.2,0,0
76382.825,60.7833,-1518.84,0,0
77684.45,58.3464,-1489.85,0,0
78986.075,56.2098,-1461.33,0,0
80287.7,54.7613,-1433.22,0,0
81589.325,53.7567,-1406.01,0,0
82890.95,53.3242,-1379.49,0,0
84192.575,53.0285,-1353.83,0,0
85494.2,53.017,-1328.81,0,0
86795.825,53.1873,-1304.48,0,0
88097.45,53.6995,-1280.63,0,0
89399.075,55.0834,-1256.74,0,0
90700.7,57.3955,-1235.11,0,0
92002.3,59.7705,-1214.56,0,0
93303.9,62.6273,-1195.85,0,0
94605.6,63.124,-1181.38,0,0
95907.2,57.9058,-1163.44,0,0
97208.8,56.6799,-1142.05,0,0
98510.4,56.388,-1122.37,0,0
99812.1,55.8514,-1103.33,0,0
101114,55.5321,-1083.42,0,0
102415,57.0617,-1062.84,0,0
103717,60.7496,-1045.4,0,0
105019,63.8044,-1031.17,0,0
106320.175,63.2063,-1017.12,0,0
107621.8,61.1461,-1001.32,0,0
108923.425,59.4998,-983.747,0,0
110225.05,59.6123,-965.211,0,0
111526.675,62.0074,-947.335,0,0
112828.3,64.2333,-931.371,0,0
114129.925,65.7868,-915.404,0,0
115431.55,68.2335,-898.57,0,0
116733.175,72.0685,-882.172,0,0
118034.8,78.0874,-866.442,0,0
119336.425,84.6527,-854.56,0,0
120638.05,90.446,-848.69,0,0
121939.675,87.3328,-840.091,0,0
123241,88.009,-827.004,0,0
124543,89.3077,-815.757,0,0
125845,90.4737,-805.462,0,0
127146,89.5912,-795.548,0,0
128448,87.6937,-784.586,0,0
129749,86.239,-771.299,0,0
131051,87.5863,-758.464,0,0
132353,86.8855,-747.357,0,0
133654,86.0752,-735.651,0,0
134956,84.4425,-722.959,0,0
136258,82.7637,-709.399,0,0
137559,82.5112,-694.003,0,0
138860.775,83.8648,-680.271,0,0
140162.4,83.2291,-666.483,0,0
141464.025,82.8202,-652.234,0,0
142765.65,82.2116,-636.021,0,0
144067.275,82.7594,-618.715,0,0
145368.9,84.5792,-600.597,0,0
146670.525,87.365,-581.638,0,0
147972.15,91.9744,-561.645,0,0
149273.775,98.8618,-541.07,0,0
150575.4,109.963,-521.139,0,0
151877.025,122.788,-504.604,0,0
153178.65,135.294,-491.542,0,0
154480,144.953,-479.579,0,0
155782,153.286,-463.356,0,0
157084,165.432,-445.17,0,0
158385,181.248,-434.399,0,0
159687,186.105,-418.997,0,0
160988,202.826,-391.777,0,0
162290,229.739,-366.006,0,0
163592,266.447,-344.997,0,0
164893,317.343,-335.906,0,0
166195,367.815,-351.738,0,0
167497,404.946,-384.463,0,0
168798,425.215,-423.821,0,0
170100,418.793,-465.184,0,0
171401.375,401.816,-477.496,0,0
172703.0,398.264,-477.277,0,0
174004.625,407.153,-486.602,0,0
175306.25,406.913,-502.208,0,0
176607.875,405.73,-518.926,0,0
177909.5,384.269,-535.042,0,0
179211.125,363.506,-526.294,0,0
180512.75,359.832,-513.458,0,0
181814.375,365.216,-511.158,0,0
183116.0,356.941,-516.099,0,0
184417.625,342.854,-511.733,0,0
185719.25,330.266,-497.577,0,0
187021,327.671,-474.491,0,0
188322,336.419,-457.677,0,0
189624,341.601,-444.38,0,0
190926,351.376,-430.973,0,0
192227,359.988,-418.281,0,0
193529,371.581,-398.577,0,0
194831,396.685,-381.61,0,0
196132,430.408,-377.339,0,0
197434,453.468,-390.597,0,0
198735,467.609,-399.636,0,0
200037,474.954,-406.685,0,0
201339,479.888,-399.375,0,0
202640.35,500.621,-389.022,0,0
203941.975,531.744,-389.715,0,0
205243.6,559.733,-405.565,0,0
206545.225,570.644,-420.012,0,0
207846.85,591.533,-421.203,0,0
209148.475,622.904,-431.973,0,0
210450.1,654.076,-455.048,0,0
211751.725,679.112,-487.405,0,0
213053.35,699.163,-521.59,0,0
214354.975,713.211,-563.816,0,0
215656.6,718.863,-609.216,0,0
216958.225,715.712,-655.371,0,0
218259.85,702.203,-699.349,0,0
219561,682.377,-734.73,0,0
220863,662.358,-771.195,0,0
222165,633.115,-807.762,0,0
223466,588.043,-833.52,0,0
224768,547.927,-834.032,0,0
226070,528.608,-833.234,0,0
227371,511.404,-843.614,0,0
228673,485.725,-856.233,0,0
229974,458.263,-863.158,0,0
231276,429.465,-866.47,0,0
232578,402.202,-865.365,0,0
233879,376.883,-862.463,0,0
235180.95,352.85,-857.74,0,0
236482.575,327.553,-852.124,0,0
237784.2,302.344,-842.64,0,0
239085.825,278.898,-826.597,0,0
240387.45,262.436,-808.698,0,0
241689.075,248.75,-790.358,0,0
242990.7,241.109,-771.837,0,0
244292.325,237.586,-757.595,0,0
245593.95,232.541,-746.56,0,0
246895.575,227.653,-734.918,0,0
248197.2,223.884,-723.87,0,0
249498.825,223.005,-714.381,0,0
250800,219.689,-708.962,0,0
252102,212.648,-701.902,0,0
253404,205.041,-690.102,0,0
254705,201.144,-675.135,0,0
256007,202.579,-658.688,0,0
257309,210.333,-646.258,0,0
258610,217.573,-638.111,0,0
259912,229.334,-630.451,0,0
261213,244.764,-632.634,0,0
262515,252.765,-646.159,0,0
263817,249.012,-659.789,0,0
265118,237.421,-668.381,0,0
266420,223.325,-669.777,0,0
267721.55,210.177,-663.975,0,0
269023.175,202.372,-654.611,0,0
270324.8,197.693,-644.939,0,0
271626.425,197.231,-635.614,0,0
272928.05,197.781,-629.681,0,0
274229.675,198.137,-621.99,0,0
275531.3,202.71,-615.542,0,0
276832.925,210.061,-612.843,0,0
278134.55,216.733,-616.542,0,0
279436.175,218.669,-624.242,0,0
280737.8,214.47,-632.407,0,0
282039.425,206.166,-637.169,0,0
283341,196.261,-638.014,0,0
284643,186.566,-635.083,0,0
285944,178.539,-629.348,0,0
287246,173.309,-621.8,0,0
288548,171.806,-614.481,0,0
289849,171.749,-609.698,0,0
291151,171.441,-606.726,0,0
292452,169.495,-603.525,0,0
293754,169.319,-598.377,0,0
295056,172.219,-595.31,0,0
296357,175.36,-596.348,0,0
297659,175.547,-600.407,0,0
298960.525,171.834,-604.31,0,0
300262.15,166.032,-606.622,0,0
301563.775,158.905,-607.047,0,0
302865.4,151.677,-605.033,0,0
304167.025,145.261,-601.725,0,0
305468.65,139.734,-597.148,0,0
306770.275,135.85,-592.092,0,0
308071.9,133.323,-587.683,0,0
309373.525,130.811,-584.577,0,0
310675.15,127.63,-581.932,0,0
311976.775,123.172,-578.837,0,0
313278.4,118.485,-573.992,0,0
314580,115.038,-567.501,0,0
315882,114.196,-560.595,0,0
317183,115.163,-555.542,0,0
318485,115.772,-552.455,0,0
319787,115.693,-549.676,0,0
321088,115.688,-546.854,0,0
322390,116.479,-545.025,0,0
323691,116.7,-544.853,0,0
324993,115.235,-545.733,0,0
326295,111.698,-546.146,0,0
327596,107.287,-545.08,0,0
328898,102.863,-543.012,0,0
330200,98.7817,-540.108,0,0
331501.125,94.5993,-537.063,0,0
332802.75,90.2762,-533.282,0,0
334104.375,86.0301,-528.649,0,0
335406.0,82.363,-523.015,0,0
336707.625,79.7025,-516.854,0,0
338009.25,77.8626,-510.555,0,0
339310.875,76.8852,-503.871,0,0
340612.5,77.4444,-497.137,0,0
341914.125,79.6296,-491.581,0,0
343215.75,82.3256,-488.101,0,0
344517.375,83.9627,-486.288,0,0
345819.0,84.0618,-484.596,0,0
347121,83.7962,-482.484,0,0
348422,82.9017,-480.02,0,0
349724,82.3359,-476.35,0,0
351025,83.3975,-472.706,0,0
352327,85.1519,-471.115,0,0
353629,85.1142,-470.943,0,0
354930,83.4734,-469.845,0,0
356232,81.6991,-467.761,0,0
357534,79.8181,-464.899,0,0
358835,78.8521,-461.168,0,0
360137,78.7767,-457.746,0,0
361438,78.7196,-454.917,0,0
362740.1,78.5791,-451.789,0,0
364041.725,79.4763,-448.603,0,0
365343.35,81.107,-446.928,0,0
366644.975,81.204,-446.891,0,0
367946.6,79.4092,-446.27,0,0
369248.225,76.6805,-443.443,0,0
370549.85,76.4216,-438.824,0,0
371851.475,78.2207,-436.414,0,0
373153.1,78.2551,-436.138,0,0
374454.725,76.3541,-434.862,0,0
375756.35,74.4181,-431.928,0,0
377057.975,73.7499,-428.084,0,0
378359.6,74.094,-424.673,0,0
379661,75.1096,-421.93,0,0
380963,75.7962,-420.43,0,0
382264,75.8077,-418.812,0,0
383566,75.7825,-417.421,0,0
384868,74.9569,-416.091,0,0
386169,73.8036,-414.135,0,0
387471,72.3647,-411.664,0,0
388773,71.1026,-408.366,0,0
390074,70.5592,-404.249,0,0
391376,71.2918,-399.896,0,0
392677,73.3754,-396.287,0,0
393979,75.918,-393.938,0,0
395280.7,78.2115,-392.719,0,0
396582.325,80.0893,-392.335,0,0
397883.95,81.1054,-392.76,0,0
399185.575,80.9587,-393.208,0,0
400006.6,80.4438,-393.28,0,0