File: Accelerated corrosion test data/2025-10-14_18-00-03/sample_1.csv
Frequency (Hz),Impedance (ohms),Phase (Radians),Temperature (C),Humidity (%)
10000.0,246.127,-12123.2,0,0
11301.625,216.381,-10738.2,0,0
12603.25,197.489,-9645,0,0
13904.875,186.031,-8727.23,0,0
15206.5,190.365,-8002.7,0,0
16508.125,157.192,-7379.83,0,0
17809.75,147.128,-6847.62,0,0
19111.375,137.089,-6381.76,0,0
20413.0,160.29,-5943.53,0,0
21714.625,138.06,-5627.52,0,0
23016.25,122.956,-5326.47,0,0
24317.875,112.097,-5035.69,0,0
25619.5,105.485,-4774.08,0,0
26921.1,115.578,-4527.34,0,0
28222.7,111.184,-4323.74,0,0
29524.4,106.884,-4158.59,0,0
30826,101.553,-3972.88,0,0
32127.6,98.0847,-3815.94,0,0
33429.2,88.4881,-3673.58,0,0
34730.9,82.4246,-3532.53,0,0
36032.5,78.3208,-3402.16,0,0
37334.1,76.5825,-3281.05,0,0
38635.7,75.6205,-3168.19,0,0
39937.4,72.779,-3062.21,0,0
41239,74.8597,-2964.14,0,0
42540.6,71.2317,-2872.33,0,0
43842.225,68.2027,-2785.7,0,0
45143.85,68.903,-2704.98,0,0
46445.475,65.275,-2628.88,0,0
47747.1,64.3431,-2555.92,0,0
49048.725,61.6981,-2486.08,0,0
50350.35,59.9465,-2419.89,0,0
51651.975,58.8979,-2356.85,0,0
52953.6,58.0816,-2296.39,0,0
54255.225,56.9368,-2239.67,0,0
55556.85,56.1539,-2184.7,0,0
56858.475,55.1899,-2131.88,0,0
58160.1,55.0365,-2081.7,0,0
59461.7,54.7385,-2034.08,0,0
60763.3,54.8615,-1988.6,0,0
62065,53.4455,-1944.76,0,0
63366.6,52.7571,-1901.51,0,0
64668.2,53.2542,-1859.75,0,0
65969.8,55.3028,-1822.13,0,0
67271.5,54.1403,-1785.46,0,0
68573.1,53.6745,-1750.34,0,0
69874.7,52.4808,-1716.7,0,0
71176.3,50.6194,-1682.51,0,0
72478,48.7172,-1648.85,0,0
73779.6,48.2906,-1615.61,0,0
75081.2,48.7916,-1583.58,0,0
76382.825,49.64,-1552.73,0,0
77684.45,50.5343,-1523.66,0,0
78986.075,52.2544,-1496.24,0,0
80287.7,51.3367,-1469.95,0,0
81589.325,51.0417,-1442.16,0,0
82890.95,51.679,-1415.54,0,0
84192.575,53.227,-1389.5,0,0
85494.2,55.5718,-1365.41,0,0
86795.825,56.2521,-1342.29,0,0
88097.45,56.5938,-1319.06,0,0
89399.075,58.428,-1294.72,0,0
90700.7,61.9297,-1271.51,0,0
92002.3,68.2613,-1250.59,0,0
93303.9,75.3779,-1233.95,0,0
94605.6,74.1102,-1227.2,0,0
95907.2,66.3981,-1208.47,0,0
97208.8,64.3706,-1187.73,0,0
98510.4,64.2826,-1167.32,0,0
99812.1,63.3596,-1147.45,0,0
101114,63.5064,-1127.69,0,0
102415,63.4885,-1106.06,0,0
103717,68.3716,-1084.82,0,0
105019,75.5024,-1067.69,0,0
106320.175,82.3339,-1051.95,0,0
107621.8,88.7497,-1040.43,0,0
108923.425,92.6895,-1029.99,0,0
110225.05,93.667,-1022.23,0,0
111526.675,93.4185,-1009.74,0,0
112828.3,94.849,-999.883,0,0
114129.925,93.3253,-991.491,0,0
115431.55,89.6809,-981.384,0,0
116733.175,85.1005,-968.621,0,0
118034.8,81.3209,-953.665,0,0
119336.425,80.1311,-937.914,0,0
120638.05,81.0373,-923.667,0,0
121939.675,80.3259,-911.376,0,0
123241,78.8464,-897.05,0,0
124543,79.0173,-881.989,0,0
125845,80.186,-867.532,0,0
127146,81.6782,-853.527,0,0
128448,83.8153,-839.552,0,0
129749,86.3094,-825.537,0,0
131051,91.4035,-812.908,0,0
132353,95.1588,-803.129,0,0
133654,97.6483,-792.753,0,0
134956,99.8629,-782.533,0,0
136258,102.219,-771.613,0,0
137559,106.661,-761.654,0,0
138860.775,108.665,-754.781,0,0
140162.4,108.459,-746.244,0,0
141464.025,108.67,-735.77,0,0
142765.65,109.608,-724.832,0,0
144067.275,111.144,-713.897,0,0
145368.9,113.191,-702.913,0,0
146670.525,115.813,-692.49,0,0
147972.15,117.839,-683.528,0,0
149273.775,120.236,-672.201,0,0
150575.4,121.688,-664.064,0,0
151877.025,120.8,-652.018,0,0
153178.65,121.561,-636.503,0,0
154480,126.423,-620.246,0,0
155782,134.416,-603.864,0,0
157084,146.846,-589.755,0,0
158385,159.418,-581.088,0,0
159687,169.733,-569.798,0,0
160988,188.508,-560.431,0,0
162290,207.384,-561.955,0,0
163592,218.88,-565.082,0,0
164893,229.582,-568.254,0,0
166195,241.256,-576.134,0,0
167497,245.118,-587.794,0,0
168798,240.864,-598.863,0,0
170100,230.566,-602.174,0,0
171401.375,223.309,-598.323,0,0
172703.0,219.492,-593.52,0,0
174004.625,215.697,-587.905,0,0
175306.25,214.886,-581.176,0,0
176607.875,215.302,-577.831,0,0
177909.5,214.188,-574.54,0,0
179211.125,210.125,-571.878,0,0
180512.75,204.226,-567.22,0,0
181814.375,198.007,-559.11,0,0
183116.0,191.982,-548.883,0,0
184417.625,186.784,-534.594,0,0
185719.25,186.641,-518,0,0
187021,188.602,-503.086,0,0
188322,192.053,-488.457,0,0
189624,196.288,-473.844,0,0
190926,201.128,-458.643,0,0
192227,207.293,-441.919,0,0
193529,216.479,-425.284,0,0
194831,226.727,-407.89,0,0
196132,240.622,-389.842,0,0
197434,258.136,-371.421,0,0
198735,280.024,-355.505,0,0
200037,303.238,-340.636,0,0
201339,332.383,-325.575,0,0
202640.35,370.195,-313.74,0,0
203941.975,414.511,-311.197,0,0
205243.6,465.32,-325.507,0,0
206545.225,505.161,-357.068,0,0
207846.85,529.37,-397.095,0,0
209148.475,538.119,-435.19,0,0
210450.1,533.316,-467.013,0,0
211751.725,524.459,-481.74,0,0
213053.35,524.283,-483.15,0,0
214354.975,538.161,-490.576,0,0
215656.6,552.546,-504.152,0,0
216958.225,563.73,-519.976,0,0
218259.85,578.463,-536.647,0,0
219561,596.325,-555.436,0,0
220863,617.923,-585.371,0,0
222165,634.787,-629.215,0,0
223466,635.497,-682.292,0,0
224768,622.363,-733.213,0,0
226070,596.765,-780.444,0,0
227371,561.723,-821.298,0,0
228673,515.046,-851.581,0,0
229974,466.53,-865.279,0,0
231276,423.264,-866.22,0,0
232578,388.631,-860.814,0,0
233879,360.565,-855.08,0,0
235180.95,334.905,-850.098,0,0
236482.575,309.479,-843.2,0,0
237784.2,286.562,-834.566,0,0
239085.825,264.981,-824.211,0,0
240387.45,246.5,-811.785,0,0
241689.075,230.653,-799.488,0,0
242990.7,217.225,-787.071,0,0
244292.325,205.452,-775.767,0,0
245593.95,193.641,-764.843,0,0
246895.575,182.156,-752.903,0,0
248197.2,172.689,-739.826,0,0
249498.825,164.833,-727.192,0,0
250800,158.014,-714.843,0,0
252102,152.287,-702.527,0,0
253404,147.212,-690.071,0,0
254705,143.745,-677.142,0,0
256007,141.979,-665.157,0,0
257309,140.972,-653.727,0,0
258610,140.725,-642.083,0,0
259912,143.204,-630.543,0,0
261213,147.746,-621.158,0,0
262515,153.313,-614.368,0,0
263817,158.838,-609.978,0,0
265118,164.666,-607.723,0,0
266420,170.288,-609.675,0,0
267721.55,170.97,-615.662,0,0
269023.175,164.692,-621.052,0,0
270324.8,154.48,-620.232,0,0
271626.425,145.84,-613.592,0,0
272928.05,141.071,-604.78,0,0
274229.675,139.841,-596.116,0,0
275531.3,140.441,-589.166,0,0
276832.925,141.989,-583.223,0,0
278134.55,144.55,-579.392,0,0
279436.175,146.392,-577.943,0,0
280737.8,146.1,-577.502,0,0
282039.425,144.015,-577.094,0,0
283341,140.371,-574.992,0,0
284643,137.079,-571.309,0,0
285944,134.373,-567.722,0,0
287246,129.765,-562.961,0,0
288548,127.064,-554.001,0,0
289849,129.544,-546.003,0,0
291151,132.181,-541.973,0,0
292452,133.433,-539.084,0,0
293754,132.575,-535.239,0,0
295056,132.593,-528.55,0,0
296357,136.096,-521.581,0,0
297659,141.201,-517.133,0,0
298960.525,146.476,-513.791,0,0
300262.15,152.386,-511.732,0,0
301563.775,158.899,-510.885,0,0
302865.4,165.767,-512.885,0,0
304167.025,170.84,-516.804,0,0
305468.65,174.637,-521.525,0,0
306770.275,177.654,-527.883,0,0
308071.9,177.736,-535.553,0,0
309373.525,175.473,-541.717,0,0
310675.15,173.053,-548.092,0,0
311976.775,168.331,-554.945,0,0
313278.4,160.529,-560.581,0,0
314580,151.764,-562.717,0,0
315882,143.952,-563.527,0,0
317183,135.835,-563.03,0,0
318485,128.077,-561.288,0,0
319787,120.86,-558.612,0,0
321088,114.236,-554.81,0,0
322390,108.298,-550.023,0,0
323691,103.844,-544.275,0,0
324993,101.072,-538.891,0,0
326295,99.4278,-534.187,0,0
327596,98.3403,-530.603,0,0
328898,97.2766,-528.078,0,0
330200,95.6365,-526.313,0,0
331501.125,93.1183,-524.889,0,0
332802.75,89.8436,-523.101,0,0
334104.375,86.1759,-520.862,0,0
335406.0,82.2416,-517.914,0,0
336707.625,78.7735,-514.241,0,0
338009.25,75.635,-510.435,0,0
339310.875,72.7547,-506.348,0,0
340612.5,70.3206,-502.174,0,0
341914.125,68.1336,-498.12,0,0
343215.75,65.9734,-494.055,0,0
344517.375,63.9101,-489.924,0,0
345819.0,61.8817,-485.576,0,0
347121,60.0876,-481.084,0,0
348422,58.7193,-476.252,0,0
349724,57.8265,-471.576,0,0
351025,57.2221,-466.947,0,0
352327,57.033,-462.627,0,0
353629,56.8515,-458.534,0,0
354930,56.6684,-454.545,0,0
356232,56.7481,-450.608,0,0
357534,56.9491,-446.828,0,0
358835,57.2102,-443.2,0,0
360137,57.558,-439.601,0,0
361438,57.9287,-436.281,0,0
362740.1,58.228,-432.96,0,0
364041.725,58.6389,-429.563,0,0
365343.35,59.1796,-426.288,0,0
366644.975,59.5998,-423.152,0,0
367946.6,59.7377,-419.511,0,0
369248.225,60.6308,-415.032,0,0
370549.85,62.8055,-410.693,0,0
371851.475,66.0277,-407.304,0,0
373153.1,69.6891,-405.222,0,0
374454.725,72.9454,-404.555,0,0
375756.35,75.1276,-404.514,0,0
377057.975,76.8411,-404.258,0,0
378359.6,78.513,-404.453,0,0
379661,79.3688,-404.809,0,0
380963,80.5899,-404.992,0,0
382264,81.5468,-406.618,0,0
383566,80.7925,-408.753,0,0
384868,78.5579,-410.05,0,0
386169,75.5214,-410.286,0,0
387471,72.3812,-409.102,0,0
388773,70.0099,-406.961,0,0
390074,68.4936,-404.642,0,0
391376,67.3919,-402.682,0,0
392677,66.2219,-401.258,0,0
393979,64.2562,-399.797,0,0
395280.7,62.0047,-397.524,0,0
396582.325,60.0264,-394.468,0,0
397883.95,58.5973,-391.086,0,0
399185.575,57.5656,-387.56,0,0
400006.6,57.17,-385.311,0,0