File: Accelerated corrosion test data/2025-10-14_18-00-03/sample_7.csv
Frequency (Hz),Impedance (ohms),Phase (Radians),Temperature (C),Humidity (%)
10000.0,274.646,-12001.4,0,0
11301.625,247.608,-10618.9,0,0
12603.25,257.495,-9569.31,0,0
13904.875,211.471,-8687.46,0,0
15206.5,193.712,-7956.2,0,0
16508.125,172.063,-7319.48,0,0
17809.75,173.505,-6770.17,0,0
19111.375,181.407,-6324.87,0,0
20413.0,166.67,-5940.63,0,0
21714.625,156.632,-5601.93,0,0
23016.25,130.74,-5279.41,0,0
24317.875,123.472,-4988.8,0,0
25619.5,119.717,-4726.92,0,0
26921.1,123.514,-4483.53,0,0
28222.7,176.327,-4277.95,0,0
29524.4,139.855,-4141.57,0,0
30826,133.027,-3960.11,0,0
32127.6,117.364,-3813.74,0,0
33429.2,101.73,-3664.56,0,0
34730.9,92.601,-3520.59,0,0
36032.5,89.0673,-3388.12,0,0
37334.1,86.391,-3265.24,0,0
38635.7,86.9276,-3149.11,0,0
39937.4,98.3329,-3050.15,0,0
41239,86.8293,-2963.19,0,0
42540.6,80.6367,-2867.97,0,0
43842.225,79.6208,-2779.85,0,0
45143.85,80.3279,-2702.56,0,0
46445.475,77.2523,-2630.86,0,0
47747.1,71.126,-2555.04,0,0
49048.725,68.2742,-2485.3,0,0
50350.35,66.4204,-2418.56,0,0
51651.975,64.7621,-2355.53,0,0
52953.6,63.9444,-2295.4,0,0
54255.225,62.6156,-2239.08,0,0
55556.85,61.2575,-2184.73,0,0
56858.475,60.4448,-2132.87,0,0
58160.1,59.7225,-2082.68,0,0
59461.7,59.8401,-2035.51,0,0
60763.3,59.297,-1992.06,0,0
62065,57.279,-1948.92,0,0
63366.6,56.0146,-1906.37,0,0
64668.2,55.3167,-1866.13,0,0
65969.8,55.3435,-1828.14,0,0
67271.5,53.5002,-1791.5,0,0
68573.1,52.3829,-1755.03,0,0
69874.7,51.7604,-1719.94,0,0
71176.3,51.5974,-1686.55,0,0
72478,50.4734,-1654.52,0,0
73779.6,49.7074,-1622.94,0,0
75081.2,49.2315,-1592.39,0,0
76382.825,48.7016,-1562.83,0,0
77684.45,48.317,-1534.24,0,0
78986.075,48.0719,-1506.47,0,0
80287.7,47.899,-1479.62,0,0
81589.325,47.5044,-1453.5,0,0
82890.95,47.2483,-1428.06,0,0
84192.575,47.2736,-1403.09,0,0
85494.2,47.5167,-1379.29,0,0
86795.825,47.5414,-1355.98,0,0
88097.45,47.6111,-1333.52,0,0
89399.075,47.2705,-1311.46,0,0
90700.7,47.4888,-1289.43,0,0
92002.3,47.9463,-1267.77,0,0
93303.9,48.43,-1246.95,0,0
94605.6,50.0812,-1227.16,0,0
95907.2,50.2041,-1209.21,0,0
97208.8,49.4743,-1190,0,0
98510.4,50.4112,-1170.82,0,0
99812.1,50.0984,-1152.09,0,0
101114,51.6278,-1133.3,0,0
102415,53.1355,-1115.36,0,0
103717,55.914,-1099.18,0,0
105019,56.7906,-1083.88,0,0
106320.175,56.3979,-1067.54,0,0
107621.8,57.3724,-1051.65,0,0
108923.425,58.5118,-1035.55,0,0
110225.05,59.0847,-1018.83,0,0
111526.675,62.224,-1002.27,0,0
112828.3,66.9922,-986.442,0,0
114129.925,72.1712,-972.902,0,0
115431.55,78.0846,-960.643,0,0
116733.175,85.425,-952.77,0,0
118034.8,88.3361,-947.605,0,0
119336.425,90.4588,-944.697,0,0
120638.05,83.167,-943.567,0,0
121939.675,73.3581,-933.112,0,0
123241,66.0551,-919.543,0,0
124543,62.0883,-905.099,0,0
125845,58.2468,-891.093,0,0
127146,55.1129,-876.345,0,0
128448,53.4579,-861.833,0,0
129749,52.0597,-847.238,0,0
131051,50.8479,-832.936,0,0
132353,50.3742,-817.779,0,0
133654,50.8565,-802.322,0,0
134956,53.5805,-787.556,0,0
136258,58.35,-775.094,0,0
137559,58.8367,-767.097,0,0
138860.775,56.595,-754.979,0,0
140162.4,56.733,-741.49,0,0
141464.025,56.6007,-728.073,0,0
142765.65,57.678,-713.714,0,0
144067.275,60.1467,-700.519,0,0
145368.9,61.7197,-688.062,0,0
146670.525,62.7872,-674.606,0,0
147972.15,64.8721,-661.171,0,0
149273.775,65.5282,-648.248,0,0
150575.4,66.3268,-632.512,0,0
151877.025,68.8598,-615.293,0,0
153178.65,73.574,-597.667,0,0
154480,79.971,-579.913,0,0
155782,88.5474,-562.361,0,0
157084,99.5829,-545.827,0,0
158385,112.495,-532.861,0,0
159687,121.126,-523.261,0,0
160988,125.072,-507.811,0,0
162290,134.809,-483.626,0,0
163592,153.745,-458.334,0,0
164893,180.836,-438.092,0,0
166195,212.23,-416.189,0,0
167497,261.756,-401.121,0,0
168798,323.184,-407.807,0,0
170100,377.96,-443.454,0,0
171401.375,412.25,-501.095,0,0
172703.0,419.245,-568.371,0,0
174004.625,383.165,-624.992,0,0
175306.25,337.864,-636.853,0,0
176607.875,317.799,-624.318,0,0
177909.5,327.015,-626.163,0,0
179211.125,322.11,-663.316,0,0
180512.75,289.747,-681.757,0,0
181814.375,251.209,-692.067,0,0
183116.0,210.848,-679.941,0,0
184417.625,182.945,-658.173,0,0
185719.25,164.735,-635.728,0,0
187021,151.853,-608.69,0,0
188322,149.019,-584.957,0,0
189624,143.427,-566.574,0,0
190926,138.492,-544.676,0,0
192227,137.85,-520.954,0,0
193529,140.474,-496.925,0,0
194831,146.999,-472.666,0,0
196132,157.813,-451.6,0,0
197434,169.708,-433.976,0,0
198735,178.803,-416.191,0,0
200037,189.623,-394.508,0,0
201339,206.06,-371.65,0,0
202640.35,229.335,-347.519,0,0
203941.975,259.938,-327.292,0,0
205243.6,298.131,-310.794,0,0
206545.225,344.224,-310.079,0,0
207846.85,377.735,-319.514,0,0
209148.475,416.276,-316.203,0,0
210450.1,477.366,-335.08,0,0
211751.725,518.584,-387.643,0,0
213053.35,533.446,-443.832,0,0
214354.975,532.114,-490.288,0,0
215656.6,521.195,-527.873,0,0
216958.225,512.276,-565.645,0,0
218259.85,485.402,-597.296,0,0
219561,449.906,-615.805,0,0
220863,418.627,-612.332,0,0
222165,403.371,-599.513,0,0
223466,400.944,-592.047,0,0
224768,399.366,-588.347,0,0
226070,406.604,-582.528,0,0
227371,418.675,-588.501,0,0
228673,431.756,-604.589,0,0
229974,436.488,-628.626,0,0
231276,430.426,-660.34,0,0
232578,414.988,-689.909,0,0
233879,382.895,-716.984,0,0
235180.95,338.076,-725.523,0,0
236482.575,305.211,-712.216,0,0
237784.2,281.353,-701.53,0,0
239085.825,258.211,-680.444,0,0
240387.45,255.708,-660.509,0,0
241689.075,250.032,-654.396,0,0
242990.7,237.274,-643.088,0,0
244292.325,231.016,-623.792,0,0
245593.95,235.48,-610.958,0,0
246895.575,236.491,-603.263,0,0
248197.2,236.958,-593.731,0,0
249498.825,240.055,-584.289,0,0
250800,246.5,-575.537,0,0
252102,256.917,-570.52,0,0
253404,269.341,-573.808,0,0
254705,274.608,-584.86,0,0
256007,270.358,-595.197,0,0
257309,261.86,-599.596,0,0
258610,254.308,-598.071,0,0
259912,248.772,-596.584,0,0
261213,243.237,-590.421,0,0
262515,244.031,-581.548,0,0
263817,252.799,-578.468,0,0
265118,257.918,-585.105,0,0
266420,257.077,-589.967,0,0
267721.55,255.827,-595.547,0,0
269023.175,251.239,-598.692,0,0
270324.8,251.022,-598.12,0,0
271626.425,258.332,-602.976,0,0
272928.05,262.56,-625.732,0,0
274229.675,243.763,-652.049,0,0
275531.3,209.28,-663.937,0,0
276832.925,174.752,-655.19,0,0
278134.55,151.05,-633.458,0,0
279436.175,140.613,-610.398,0,0
280737.8,138.73,-590.809,0,0
282039.425,138.811,-578.773,0,0
283341,135.671,-566.24,0,0
284643,136.624,-551.492,0,0
285944,141.467,-539.787,0,0
287246,146.326,-532.447,0,0
288548,148.438,-524.885,0,0
289849,152.078,-515.823,0,0
291151,158.637,-507.071,0,0
292452,166.42,-501.14,0,0
293754,174.522,-496.573,0,0
295056,182.885,-492.583,0,0
296357,193.376,-489.962,0,0
297659,205.804,-489.953,0,0
298960.525,218.516,-493.863,0,0
300262.15,231.661,-501.105,0,0
301563.775,245.504,-514.388,0,0
302865.4,254.77,-538.78,0,0
304167.025,247.309,-566.081,0,0
305468.65,230.906,-584.799,0,0
306770.275,210.433,-595.549,0,0
308071.9,190.426,-598.94,0,0
309373.525,171.894,-596.369,0,0
310675.15,158.376,-589.998,0,0
311976.775,148.179,-583.85,0,0
313278.4,138.939,-577.854,0,0
314580,130.612,-570.21,0,0
315882,125.511,-561.879,0,0
317183,122.321,-555.204,0,0
318485,119.527,-549.58,0,0
319787,117.411,-544.567,0,0
321088,115.385,-540.628,0,0
322390,113.142,-537.082,0,0
323691,110.349,-534.056,0,0
324993,107.458,-530.155,0,0
326295,105.505,-526.838,0,0
327596,103.109,-524.461,0,0
328898,99.8441,-522.027,0,0
330200,96.3592,-519.177,0,0
331501.125,92.6654,-516.382,0,0
332802.75,88.2846,-513.266,0,0
334104.375,83.2717,-509.182,0,0
335406.0,78.7797,-503.934,0,0
336707.625,74.7263,-497.966,0,0
338009.25,71.5689,-491.392,0,0
339310.875,69.2865,-484.748,0,0
340612.5,67.5292,-477.931,0,0
341914.125,66.6034,-470.944,0,0
343215.75,66.719,-464.261,0,0
344517.375,67.7585,-458.244,0,0
345819.0,69.2295,-453.293,0,0
347121,70.2124,-449.521,0,0
348422,70.1452,-446.066,0,0
349724,69.5362,-441.63,0,0
351025,69.2261,-436.48,0,0
352327,70.1184,-430.699,0,0
353629,72.2195,-425.813,0,0
354930,74.777,-421.98,0,0
356232,77.2021,-419.815,0,0
357534,77.5713,-418.365,0,0
358835,76.602,-415.607,0,0
360137,75.9947,-411.106,0,0
361438,76.7417,-406.036,0,0
362740.1,78.4147,-401.418,0,0
364041.725,80.6237,-397.031,0,0
365343.35,83.9359,-393.115,0,0
366644.975,87.3612,-390.959,0,0
367946.6,90.1345,-389.408,0,0
369248.225,92.6261,-388.55,0,0
370549.85,93.9243,-388.865,0,0
371851.475,92.6347,-388.306,0,0
373153.1,91.5441,-384.952,0,0
374454.725,92.1935,-381.008,0,0
375756.35,93.7903,-377.693,0,0
377057.975,94.9444,-374.978,0,0
378359.6,96.176,-371.253,0,0
379661,98.5909,-367.615,0,0
380963,101.394,-364.767,0,0
382264,104.106,-361.945,0,0
383566,107.448,-359.364,0,0
384868,111.053,-357.527,0,0
386169,114.159,-356.061,0,0
387471,117.247,-354.7,0,0
388773,120.267,-352.56,0,0
390074,125.019,-350.789,0,0
391376,129.66,-350.59,0,0
392677,133.908,-350.626,0,0
393979,137.829,-350.763,0,0
395280.7,142.681,-350.26,0,0
396582.325,149.576,-350.764,0,0
397883.95,157.624,-354.27,0,0
399185.575,164.988,-361.682,0,0
400006.6,167.923,-368.522,0,0