File: Accelerated corrosion test data/2025-10-14_18-00-03/sample_6.csv
Frequency (Hz),Impedance (ohms),Phase (Radians),Temperature (C),Humidity (%)
10000.0,4161.01,-6573.22,0,0
11301.625,3536.6,-6182,0,0
12603.25,3040.77,-5810.48,0,0
13904.875,2640.69,-5471.03,0,0
15206.5,2313.67,-5155.58,0,0
16508.125,2044.14,-4867.9,0,0
17809.75,1820.5,-4605.41,0,0
19111.375,1632.29,-4365.71,0,0
20413.0,1471.33,-4148.06,0,0
21714.625,1334.56,-3947.48,0,0
23016.25,1218.35,-3761.77,0,0
24317.875,1116.05,-3596.53,0,0
25619.5,1026.47,-3441.82,0,0
26921.1,948.478,-3297.68,0,0
28222.7,879.647,-3166.23,0,0
29524.4,817.137,-3040.78,0,0
30826,765.982,-2925.63,0,0
32127.6,717.712,-2818.27,0,0
33429.2,678.297,-2723.21,0,0
34730.9,634.703,-2630.88,0,0
36032.5,596.309,-2544.76,0,0
37334.1,563.274,-2459.78,0,0
38635.7,534.099,-2379.53,0,0
39937.4,512.276,-2304.25,0,0
41239,490.989,-2239.89,0,0
42540.6,464.81,-2178.05,0,0
43842.225,445.552,-2112.13,0,0
45143.85,430.661,-2053.22,0,0
46445.475,416.943,-2000.62,0,0
47747.1,404.023,-1951.63,0,0
49048.725,390.569,-1909.81,0,0
50350.35,369.235,-1869.91,0,0
51651.975,349.285,-1822.9,0,0
52953.6,334.151,-1777.79,0,0
54255.225,320.017,-1734.15,0,0
55556.85,308.209,-1693.93,0,0
56858.475,296.8,-1651.9,0,0
58160.1,290.344,-1616.05,0,0
59461.7,280.016,-1583.47,0,0
60763.3,268.848,-1549.81,0,0
62065,256.606,-1515.38,0,0
63366.6,252.774,-1479.21,0,0
64668.2,246.244,-1453.14,0,0
65969.8,237.838,-1422.84,0,0
67271.5,230.825,-1395.41,0,0
68573.1,222.882,-1368.12,0,0
69874.7,215.375,-1341.15,0,0
71176.3,208.157,-1314.34,0,0
72478,201.975,-1287.66,0,0
73779.6,196.626,-1262,0,0
75081.2,191.821,-1237.85,0,0
76382.825,186.603,-1214.35,0,0
77684.45,181.466,-1191.01,0,0
78986.075,176.735,-1167.89,0,0
80287.7,172.315,-1144.99,0,0
81589.325,168.593,-1122.2,0,0
82890.95,165.735,-1099.79,0,0
84192.575,163.64,-1077.8,0,0
85494.2,162.874,-1056.41,0,0
86795.825,162.871,-1037.02,0,0
88097.45,162.748,-1018.45,0,0
89399.075,163.415,-1000.86,0,0
90700.7,163.799,-986.484,0,0
92002.3,160.429,-972.415,0,0
93303.9,157.624,-955.559,0,0
94605.6,156.688,-937.729,0,0
95907.2,157.391,-922.42,0,0
97208.8,157.257,-909.63,0,0
98510.4,155.038,-895.255,0,0
99812.1,155.535,-881.107,0,0
101114,155.612,-870.029,0,0
102415,153.234,-858.94,0,0
103717,150.159,-848.721,0,0
105019,143.707,-838.6,0,0
106320.175,134.076,-822.683,0,0
107621.8,130.778,-801.681,0,0
108923.425,131.796,-782.946,0,0
110225.05,135.016,-766.309,0,0
111526.675,139.631,-751.914,0,0
112828.3,143.972,-742.704,0,0
114129.925,143.718,-734.122,0,0
115431.55,145.049,-723.474,0,0
116733.175,144.012,-717.718,0,0
118034.8,136.856,-707.384,0,0
119336.425,133.223,-691.57,0,0
120638.05,134.884,-675.912,0,0
121939.675,137.172,-666.615,0,0
123241,135.341,-655.329,0,0
124543,135.206,-643.775,0,0
125845,133.994,-632.37,0,0
127146,132.705,-619.651,0,0
128448,132.947,-605.647,0,0
129749,134.939,-592.538,0,0
131051,136.842,-580.2,0,0
132353,139.376,-567.915,0,0
133654,142.733,-556.41,0,0
134956,145.784,-545.851,0,0
136258,148.895,-535.383,0,0
137559,152.718,-526.049,0,0
138860.775,154.96,-518.324,0,0
140162.4,155.808,-509.314,0,0
141464.025,157.394,-499.84,0,0
142765.65,157.443,-490.991,0,0
144067.275,157.209,-479.53,0,0
145368.9,159.314,-467.533,0,0
146670.525,161.887,-457.255,0,0
147972.15,162.191,-447.318,0,0
149273.775,162.197,-434.332,0,0
150575.4,164.382,-419.764,0,0
151877.025,168.387,-404.58,0,0
153178.65,175.781,-391.25,0,0
154480,181.58,-380.045,0,0
155782,187.889,-367.165,0,0
157084,196.289,-356.935,0,0
158385,201.485,-348.394,0,0
159687,206.012,-337.831,0,0
160988,210.553,-326.609,0,0
162290,215.045,-314.452,0,0
163592,220.183,-301.278,0,0
164893,225.198,-287.635,0,0
166195,230.862,-271.819,0,0
167497,237.981,-254.839,0,0
168798,247.094,-236.542,0,0
170100,257.744,-218.025,0,0
171401.375,269.695,-198.362,0,0
172703.0,283.657,-177.098,0,0
174004.625,300.492,-154.235,0,0
175306.25,321.578,-129.858,0,0
176607.875,347.943,-105.394,0,0
177909.5,379.925,-82.2483,0,0
179211.125,417.438,-61.8752,0,0
180512.75,458.821,-46.7006,0,0
181814.375,501.639,-33.8818,0,0
183116.0,548.422,-23.7217,0,0
184417.625,597.908,-15.4059,0,0
185719.25,654.373,-6.83507,0,0
187021,723.646,-3.17929,0,0
188322,804.294,-11.9837,0,0
189624,894.438,-38.5667,0,0
190926,988.71,-90.3602,0,0
192227,1074.85,-170.357,0,0
193529,1144.09,-273.7,0,0
194831,1190.18,-396.987,0,0
196132,1203.57,-532.895,0,0
197434,1180.78,-667.888,0,0
198735,1125.54,-787.513,0,0
200037,1049.63,-883.789,0,0
201339,960.76,-956.682,0,0
202640.35,866.798,-1003.07,0,0
203941.975,777.986,-1027.18,0,0
205243.6,697.226,-1036.19,0,0
206545.225,625.25,-1034.12,0,0
207846.85,561.785,-1024.14,0,0
209148.475,506.41,-1009.16,0,0
210450.1,458.365,-991.253,0,0
211751.725,415.52,-971.085,0,0
213053.35,378.721,-948.601,0,0
214354.975,346.82,-925.745,0,0
215656.6,319.441,-901.957,0,0
216958.225,296.414,-878.73,0,0
218259.85,276.535,-855.864,0,0
219561,259.313,-833.502,0,0
220863,244.817,-811.374,0,0
222165,232.7,-789.599,0,0
223466,222.939,-768.288,0,0
224768,215.898,-747.329,0,0
226070,211.464,-727.807,0,0
227371,208.457,-710.147,0,0
228673,206.011,-693.459,0,0
229974,204.738,-677.133,0,0
231276,204.899,-661.114,0,0
232578,206.887,-645.659,0,0
233879,210.802,-631.122,0,0
235180.95,216.674,-617.985,0,0
236482.575,224.457,-606.607,0,0
237784.2,233.758,-597.548,0,0
239085.825,244.164,-591.215,0,0
240387.45,255.062,-587.886,0,0
241689.075,265.786,-587.68,0,0
242990.7,275.651,-590.179,0,0
244292.325,284.987,-595.51,0,0
245593.95,291.37,-605.179,0,0
246895.575,292.825,-615.371,0,0
248197.2,291.413,-624.455,0,0
249498.825,288.427,-631.531,0,0
250800,286.978,-638.533,0,0
252102,284.01,-647.969,0,0
253404,278.229,-658.536,0,0
254705,268.297,-668.746,0,0
256007,255.04,-676.066,0,0
257309,240.632,-679.778,0,0
258610,226.403,-680.522,0,0
259912,213.015,-679.322,0,0
261213,200.375,-676.316,0,0
262515,188.785,-672.072,0,0
263817,178.43,-666.912,0,0
265118,169.035,-661.272,0,0
266420,160.824,-655.315,0,0
267721.55,153.111,-649.354,0,0
269023.175,146.064,-643.304,0,0
270324.8,139.643,-637.085,0,0
271626.425,133.509,-630.874,0,0
272928.05,127.922,-624.565,0,0
274229.675,122.846,-618.232,0,0
275531.3,118.035,-611.934,0,0
276832.925,113.645,-605.62,0,0
278134.55,109.559,-599.193,0,0
279436.175,105.995,-592.495,0,0
280737.8,103.409,-585.877,0,0
282039.425,101.443,-580.249,0,0
283341,99.0953,-574.969,0,0
284643,96.8414,-569.687,0,0
285944,95.2322,-564.617,0,0
287246,93.5598,-560.302,0,0
288548,91.2438,-556.235,0,0
289849,88.9236,-551.847,0,0
291151,86.7813,-547.378,0,0
292452,84.7677,-543.234,0,0
293754,82.5538,-539.15,0,0
295056,80.0301,-534.718,0,0
296357,77.7507,-529.903,0,0
297659,75.9927,-524.772,0,0
298960.525,74.9601,-520.099,0,0
300262.15,73.8831,-516.109,0,0
301563.775,72.3827,-512.017,0,0
302865.4,71.0089,-507.963,0,0
304167.025,69.8773,-503.77,0,0
305468.65,68.9254,-499.847,0,0
306770.275,67.8446,-496.089,0,0
308071.9,66.6863,-492.395,0,0
309373.525,65.544,-488.635,0,0
310675.15,64.5485,-484.982,0,0
311976.775,63.5276,-481.39,0,0
313278.4,62.498,-477.798,0,0
314580,61.5489,-474.217,0,0
315882,60.5548,-470.723,0,0
317183,59.6522,-467.184,0,0
318485,58.8076,-463.708,0,0
319787,57.9649,-460.156,0,0
321088,57.2619,-456.746,0,0
322390,56.5486,-453.315,0,0
323691,55.9022,-450.041,0,0
324993,55.1917,-446.782,0,0
326295,54.5148,-443.499,0,0
327596,53.7977,-440.231,0,0
328898,53.179,-436.875,0,0
330200,52.6744,-433.606,0,0
331501.125,52.2328,-430.336,0,0
332802.75,51.8857,-427.179,0,0
334104.375,51.4746,-424.019,0,0
335406.0,51.1728,-420.943,0,0
336707.625,50.8428,-417.866,0,0
338009.25,50.5654,-414.914,0,0
339310.875,50.2337,-411.832,0,0
340612.5,49.993,-408.831,0,0
341914.125,49.9248,-405.778,0,0
343215.75,49.8998,-402.885,0,0
344517.375,49.8604,-400.193,0,0
345819.0,49.7375,-397.396,0,0
347121,49.6792,-394.611,0,0
348422,49.7319,-391.846,0,0
349724,49.8857,-389.207,0,0
351025,50.0097,-386.742,0,0
352327,50.1484,-384.27,0,0
353629,50.1864,-381.999,0,0
354930,50.2049,-379.838,0,0
356232,50.0738,-377.656,0,0
357534,49.8329,-375.401,0,0
358835,49.5943,-373.111,0,0
360137,49.4228,-370.848,0,0
361438,49.1133,-368.5,0,0
362740.1,48.8861,-366.114,0,0
364041.725,48.68,-363.693,0,0
365343.35,48.5766,-361.229,0,0
366644.975,48.5136,-358.844,0,0
367946.6,48.459,-356.514,0,0
369248.225,48.3647,-354.186,0,0
370549.85,48.3305,-351.843,0,0
371851.475,48.3772,-349.537,0,0
373153.1,48.5082,-347.332,0,0
374454.725,48.4699,-345.395,0,0
375756.35,48.1002,-343.362,0,0
377057.975,47.7285,-341.084,0,0
378359.6,47.4092,-338.715,0,0
379661,47.169,-336.262,0,0
380963,46.9791,-333.715,0,0
382264,46.9655,-331.082,0,0
383566,47.2364,-328.698,0,0
384868,47.1457,-326.586,0,0
386169,46.9919,-324.169,0,0
387471,46.8863,-321.703,0,0
388773,46.8481,-319.213,0,0
390074,46.8525,-316.691,0,0
391376,46.8858,-314.155,0,0
392677,46.9193,-311.58,0,0
393979,46.9803,-308.972,0,0
395280.7,47.1052,-306.336,0,0
396582.325,47.2602,-303.669,0,0
397883.95,47.4431,-300.969,0,0
399185.575,47.666,-298.23,0,0
400006.6,47.8449,-296.488,0,0