File: Accelerated corrosion test data/2025-10-14_18-00-03/sample_2.csv
Frequency (Hz),Impedance (ohms),Phase (Radians),Temperature (C),Humidity (%)
10000.0,231.489,-11372.4,0,0
11301.625,205.761,-10072.1,0,0
12603.25,185.424,-9042.33,0,0
13904.875,186.09,-8207,0,0
15206.5,162.408,-7514.38,0,0
16508.125,144.398,-6922.66,0,0
17809.75,133.46,-6417.48,0,0
19111.375,129.4,-5980.73,0,0
20413.0,119.352,-5599.35,0,0
21714.625,126.456,-5271.98,0,0
23016.25,112.718,-4976.9,0,0
24317.875,103.79,-4712.3,0,0
25619.5,98.04,-4469.89,0,0
26921.1,95.8329,-4252.83,0,0
28222.7,90.8112,-4054.69,0,0
29524.4,94.2663,-3872.15,0,0
30826,87.8311,-3717.58,0,0
32127.6,82.425,-3564.75,0,0
33429.2,80.1903,-3426.89,0,0
34730.9,76.0751,-3296.9,0,0
36032.5,73.501,-3176.31,0,0
37334.1,71.4525,-3063.52,0,0
38635.7,69.3464,-2958.93,0,0
39937.4,67.3892,-2860.64,0,0
41239,65.9415,-2768.02,0,0
42540.6,64.7662,-2681.79,0,0
43842.225,63.3558,-2600.33,0,0
45143.85,62.2254,-2523.21,0,0
46445.475,61.2869,-2450.84,0,0
47747.1,60.8195,-2381.73,0,0
49048.725,60.9234,-2318.45,0,0
50350.35,58.2729,-2256.42,0,0
51651.975,56.9794,-2197.58,0,0
52953.6,55.4595,-2140.54,0,0
54255.225,54.7808,-2086.18,0,0
55556.85,54.2582,-2034.44,0,0
56858.475,54.1589,-1984.95,0,0
58160.1,54.3813,-1937.9,0,0
59461.7,54.883,-1892.16,0,0
60763.3,56.5152,-1849.65,0,0
62065,59.0282,-1812.05,0,0
63366.6,55.9715,-1775,0,0
64668.2,53.1665,-1737.59,0,0
65969.8,51.1255,-1698,0,0
67271.5,51.7347,-1660.85,0,0
68573.1,53.7332,-1626.92,0,0
69874.7,56.0961,-1597.38,0,0
71176.3,52.8268,-1568.98,0,0
72478,48.1104,-1538.66,0,0
73779.6,45.3681,-1505.78,0,0
75081.2,45.5498,-1473.64,0,0
76382.825,47.3176,-1443.43,0,0
77684.45,50.1695,-1415.42,0,0
78986.075,53.2927,-1391.31,0,0
80287.7,51.9722,-1369.77,0,0
81589.325,49.4638,-1344.9,0,0
82890.95,48.362,-1319.17,0,0
84192.575,49.2125,-1294.54,0,0
85494.2,49.9338,-1271.03,0,0
86795.825,50.9246,-1249.17,0,0
88097.45,51.5457,-1228.03,0,0
89399.075,51.7203,-1206.92,0,0
90700.7,51.5976,-1186.43,0,0
92002.3,53.2542,-1165.6,0,0
93303.9,55.5675,-1146.9,0,0
94605.6,56.0447,-1130.19,0,0
95907.2,55.2154,-1110.7,0,0
97208.8,58.5387,-1094.46,0,0
98510.4,57.942,-1080.69,0,0
99812.1,53.5821,-1065.42,0,0
101114,50.5519,-1048.46,0,0
102415,47.2673,-1028.21,0,0
103717,46.2927,-1006.92,0,0
105019,49.6728,-987.01,0,0
106320.175,54.4681,-969.966,0,0
107621.8,57.7038,-958.155,0,0
108923.425,55.9968,-946.065,0,0
110225.05,52.7861,-930.396,0,0
111526.675,52.0527,-912.573,0,0
112828.3,52.5402,-895.272,0,0
114129.925,54.374,-878.147,0,0
115431.55,57.4426,-861.896,0,0
116733.175,60.9894,-846.901,0,0
118034.8,64.9524,-833.553,0,0
119336.425,68.1062,-821.665,0,0
120638.05,69.9053,-811.285,0,0
121939.675,69.0719,-799.985,0,0
123241,68.1268,-786.755,0,0
124543,67.5536,-772.693,0,0
125845,67.9922,-757.638,0,0
127146,69.6765,-742.714,0,0
128448,72.5837,-728.622,0,0
129749,74.9281,-715.677,0,0
131051,77.3115,-702.626,0,0
132353,78.5814,-689.981,0,0
133654,80.07,-675.903,0,0
134956,81.6063,-661.516,0,0
136258,84.3725,-646.312,0,0
137559,87.6133,-631.207,0,0
138860.775,91.1197,-616.218,0,0
140162.4,94.6134,-599.709,0,0
141464.025,100.984,-580.937,0,0
142765.65,111.108,-563.716,0,0
144067.275,122.062,-548.548,0,0
145368.9,134.315,-533.669,0,0
146670.525,148.491,-520.466,0,0
147972.15,164.857,-508.003,0,0
149273.775,186.312,-497.591,0,0
150575.4,212.478,-497.753,0,0
151877.025,230.738,-511.268,0,0
153178.65,235.061,-525.793,0,0
154480,229.686,-534.472,0,0
155782,224.257,-534.543,0,0
157084,218.408,-531.215,0,0
158385,215.986,-521.694,0,0
159687,218.357,-514.705,0,0
160988,219.681,-508.074,0,0
162290,227.841,-505.627,0,0
163592,222.341,-511.513,0,0
164893,209.137,-506.715,0,0
166195,196.891,-491.912,0,0
167497,190.757,-471.926,0,0
168798,189.836,-449.422,0,0
170100,192.46,-427.243,0,0
171401.375,197.454,-403.783,0,0
172703.0,207.305,-379.759,0,0
174004.625,221.126,-355.148,0,0
175306.25,243.1,-330.938,0,0
176607.875,269.925,-315.507,0,0
177909.5,299.282,-307.325,0,0
179211.125,320.459,-310.56,0,0
180512.75,327.216,-308.04,0,0
181814.375,334.441,-291.008,0,0
183116.0,352.117,-270.682,0,0
184417.625,377.915,-247.029,0,0
185719.25,414.701,-230.152,0,0
187021,453.034,-219.549,0,0
188322,497.706,-213.502,0,0
189624,538.339,-213.326,0,0
190926,585.721,-210.161,0,0
192227,648.252,-213.235,0,0
193529,722.431,-237.914,0,0
194831,786.609,-291.198,0,0
196132,832.488,-355.776,0,0
197434,867.69,-423.326,0,0
198735,892.563,-506.56,0,0
200037,893.982,-590.018,0,0
201339,877.085,-678.472,0,0
202640.35,835.168,-752.812,0,0
203941.975,778.845,-806.54,0,0
205243.6,722.876,-847.197,0,0
206545.225,661.165,-865.133,0,0
207846.85,613.177,-867.622,0,0
209148.475,580.07,-870.516,0,0
210450.1,542.731,-880.787,0,0
211751.725,499.516,-880.63,0,0
213053.35,464.959,-869.012,0,0
214354.975,437.679,-855.665,0,0
215656.6,415.59,-842.201,0,0
216958.225,398.113,-827.578,0,0
218259.85,385.534,-813.813,0,0
219561,377.203,-800.983,0,0
220863,371.717,-791.159,0,0
222165,370.358,-783.28,0,0
223466,369.755,-782.811,0,0
224768,365.461,-784.094,0,0
226070,360.323,-784.307,0,0
227371,357.607,-787.104,0,0
228673,353.179,-795.352,0,0
229974,341.702,-805.829,0,0
231276,325.214,-812.916,0,0
232578,306.862,-816.358,0,0
233879,287.728,-816.304,0,0
235180.95,269.33,-813.187,0,0
236482.575,251.798,-808.05,0,0
237784.2,234.837,-800.909,0,0
239085.825,219.681,-791.786,0,0
240387.45,206.586,-781.553,0,0
241689.075,195.078,-771.336,0,0
242990.7,185.334,-760.677,0,0
244292.325,176.511,-751.142,0,0
245593.95,167.925,-742.511,0,0
246895.575,157.116,-734.385,0,0
248197.2,145.622,-722.33,0,0
249498.825,136.43,-708.108,0,0
250800,129.095,-692.529,0,0
252102,125.072,-675.9,0,0
253404,123.619,-660.383,0,0
254705,123.462,-645.302,0,0
256007,125.767,-630.003,0,0
257309,131.197,-616.7,0,0
258610,137.494,-605.761,0,0
259912,145.069,-596.141,0,0
261213,154.105,-589.297,0,0
262515,163.141,-585.551,0,0
263817,171.113,-584.933,0,0
265118,176.809,-586.388,0,0
266420,179.191,-588.282,0,0
267721.55,180.02,-588.849,0,0
269023.175,179.69,-587.997,0,0
270324.8,180.022,-584.207,0,0
271626.425,184.198,-579.493,0,0
272928.05,191.84,-576.348,0,0
274229.675,203.4,-577.877,0,0
275531.3,215.072,-589.122,0,0
276832.925,216.488,-607.855,0,0
278134.55,207.334,-622.67,0,0
279436.175,194.999,-631.396,0,0
280737.8,181.42,-635.567,0,0
282039.425,168.678,-637.222,0,0
283341,153.879,-635.296,0,0
284643,143.012,-629.551,0,0
285944,130.526,-624.294,0,0
287246,118.255,-612.175,0,0
288548,112.083,-594.965,0,0
289849,116.001,-576.635,0,0
291151,128.709,-565.55,0,0
292452,143.237,-567.384,0,0
293754,146.575,-577.499,0,0
295056,141.833,-580.572,0,0
296357,143.483,-580.294,0,0
297659,142.44,-588.995,0,0
298960.525,133.525,-593.744,0,0
300262.15,124.237,-593.869,0,0
301563.775,116.571,-590.215,0,0
302865.4,112.815,-587.189,0,0
304167.025,108.292,-586.9,0,0
305468.65,100.937,-586.358,0,0
306770.275,92.5691,-583.105,0,0
308071.9,85.1689,-577.552,0,0
309373.525,79.5093,-571.092,0,0
310675.15,74.9348,-564.787,0,0
311976.775,71.0065,-558.246,0,0
313278.4,68.0031,-551.592,0,0
314580,65.698,-545.419,0,0
315882,63.7122,-539.282,0,0
317183,62.1872,-533.254,0,0
318485,61.207,-527.658,0,0
319787,60.4581,-522.596,0,0
321088,59.4315,-517.747,0,0
322390,58.2361,-512.656,0,0
323691,57.0822,-507.105,0,0
324993,56.8877,-500.5,0,0
326295,59.046,-494.236,0,0
327596,62.1344,-490.734,0,0
328898,64.0143,-488.629,0,0
330200,65.2293,-486.859,0,0
331501.125,65.7296,-486.007,0,0
332802.75,64.7372,-485.463,0,0
334104.375,62.2056,-483.821,0,0
335406.0,59.9086,-480.792,0,0
336707.625,57.9866,-477.159,0,0
338009.25,56.5546,-473.146,0,0
339310.875,55.4972,-468.862,0,0
340612.5,54.9632,-464.456,0,0
341914.125,54.9457,-460.202,0,0
343215.75,55.2243,-455.996,0,0
344517.375,55.8877,-451.913,0,0
345819.0,56.9568,-448.173,0,0
347121,58.2072,-444.89,0,0
348422,59.5416,-441.812,0,0
349724,61.1133,-439.133,0,0
351025,62.7754,-436.878,0,0
352327,64.0494,-435.299,0,0
353629,64.8978,-433.594,0,0
354930,65.8124,-431.836,0,0
356232,66.8283,-430.193,0,0
357534,68.0899,-428.679,0,0
358835,69.5721,-427.938,0,0
360137,70.4761,-427.981,0,0
361438,70.6395,-428.322,0,0
362740.1,70.0076,-428.521,0,0
364041.725,68.733,-428.332,0,0
365343.35,67.0874,-427.647,0,0
366644.975,65.3733,-426.158,0,0
367946.6,64.3856,-423.952,0,0
369248.225,64.2872,-422.373,0,0
370549.85,63.5988,-421.691,0,0
371851.475,62.21,-420.595,0,0
373153.1,60.9696,-419.136,0,0
374454.725,59.915,-417.796,0,0
375756.35,58.4067,-416.577,0,0
377057.975,56.8332,-414.779,0,0
378359.6,55.5222,-413.324,0,0
379661,52.8984,-411.818,0,0
380963,50.7557,-407.976,0,0
382264,50.8486,-405.189,0,0
383566,49.8983,-403.69,0,0
384868,48.1411,-401.571,0,0
386169,46.3875,-398.769,0,0
387471,45.0442,-395.502,0,0
388773,44.1571,-391.986,0,0
390074,44.0097,-388.567,0,0
391376,44.3373,-385.872,0,0
392677,44.0101,-384.119,0,0
393979,42.5628,-381.87,0,0
395280.7,41.0726,-378.526,0,0
396582.325,40.4279,-374.598,0,0
397883.95,40.404,-370.706,0,0
399185.575,40.9136,-367.124,0,0
400006.6,41.2825,-365.087,0,0