File: Accelerated corrosion test data/2025-10-01_06-00-03/sample_7.csv
Frequency (Hz),Impedance (ohms),Phase (Radians),Temperature (C),Humidity (%)
10000.0,278.719,-12091.6,0,0
11301.625,250.325,-10696.8,0,0
12603.25,267.431,-9651.6,0,0
13904.875,211.931,-8753.07,0,0
15206.5,202.071,-8012.42,0,0
16508.125,174.59,-7373.97,0,0
17809.75,171.142,-6818.37,0,0
19111.375,185.182,-6383.83,0,0
20413.0,175.001,-5980.39,0,0
21714.625,157.689,-5638.52,0,0
23016.25,133.264,-5318.48,0,0
24317.875,125.08,-5025.72,0,0
25619.5,121.357,-4761.41,0,0
26921.1,125.073,-4516.42,0,0
28222.7,182.563,-4309.7,0,0
29524.4,138.25,-4170.25,0,0
30826,137.183,-3986.03,0,0
32127.6,120.04,-3842.06,0,0
33429.2,104.176,-3690.72,0,0
34730.9,94.8994,-3546.4,0,0
36032.5,90.3495,-3412.89,0,0
37334.1,88.1937,-3289.08,0,0
38635.7,88.3942,-3172.03,0,0
39937.4,99.5008,-3071.91,0,0
41239,89.0994,-2984.54,0,0
42540.6,81.7973,-2888.65,0,0
43842.225,81.093,-2799.62,0,0
45143.85,82.243,-2722.29,0,0
46445.475,79.5162,-2649.2,0,0
47747.1,72.5901,-2573.39,0,0
49048.725,70.1303,-2503.05,0,0
50350.35,68.0363,-2435.86,0,0
51651.975,66.2182,-2372.17,0,0
52953.6,65.3603,-2311.72,0,0
54255.225,64.1557,-2254.85,0,0
55556.85,62.9278,-2199.97,0,0
56858.475,62.1239,-2147.74,0,0
58160.1,61.3613,-2097.26,0,0
59461.7,61.5398,-2050.02,0,0
60763.3,61.1315,-2006.03,0,0
62065,59.0404,-1962.7,0,0
63366.6,58.0131,-1920.01,0,0
64668.2,56.8353,-1879.42,0,0
65969.8,56.9908,-1840.87,0,0
67271.5,55.1528,-1804.07,0,0
68573.1,54.008,-1767.18,0,0
69874.7,53.5049,-1731.84,0,0
71176.3,53.3035,-1698.29,0,0
72478,52.1898,-1666.02,0,0
73779.6,51.3812,-1634.2,0,0
75081.2,50.8222,-1603.31,0,0
76382.825,50.3411,-1573.61,0,0
77684.45,50.0192,-1544.7,0,0
78986.075,49.7113,-1516.73,0,0
80287.7,49.6058,-1489.57,0,0
81589.325,49.3188,-1463.27,0,0
82890.95,49.2373,-1437.53,0,0
84192.575,49.1779,-1412.48,0,0
85494.2,49.5273,-1388.39,0,0
86795.825,49.411,-1365.02,0,0
88097.45,49.7339,-1341.97,0,0
89399.075,49.7097,-1319.78,0,0
90700.7,49.8986,-1297.75,0,0
92002.3,50.6176,-1276.6,0,0
93303.9,50.6552,-1255.72,0,0
94605.6,52.8609,-1235.8,0,0
95907.2,52.3532,-1217.9,0,0
97208.8,51.8107,-1198.13,0,0
98510.4,52.6797,-1178.61,0,0
99812.1,52.6451,-1160.41,0,0
101114,53.5448,-1141.36,0,0
102415,55.1411,-1123.41,0,0
103717,57.9713,-1106.08,0,0
105019,59.3514,-1091.23,0,0
106320.175,58.8361,-1075.83,0,0
107621.8,59.7246,-1059.1,0,0
108923.425,60.6412,-1043.64,0,0
110225.05,60.8806,-1027.15,0,0
111526.675,63.4862,-1009.82,0,0
112828.3,67.4384,-993.58,0,0
114129.925,72.6325,-979.96,0,0
115431.55,77.5521,-966.993,0,0
116733.175,85.1057,-956.274,0,0
118034.8,89.2981,-951.586,0,0
119336.425,92.0597,-946.777,0,0
120638.05,87.1884,-946.499,0,0
121939.675,76.8083,-936.878,0,0
123241,70.3238,-923.89,0,0
124543,65.7903,-909.28,0,0
125845,62.3709,-896.106,0,0
127146,59.2418,-881.662,0,0
128448,57.143,-866.544,0,0
129749,55.8723,-851.934,0,0
131051,55.1124,-837.314,0,0
132353,54.1986,-822.225,0,0
133654,54.8696,-806.726,0,0
134956,57.626,-791.652,0,0
136258,62.2919,-779.146,0,0
137559,63.2943,-770.53,0,0
138860.775,62.032,-759.071,0,0
140162.4,61.8216,-745.494,0,0
141464.025,62.4588,-732.354,0,0
142765.65,63.3836,-718.629,0,0
144067.275,65.619,-705.065,0,0
145368.9,67.6424,-692.753,0,0
146670.525,68.5224,-679.744,0,0
147972.15,70.1,-666.396,0,0
149273.775,71.529,-652.993,0,0
150575.4,72.3345,-637.611,0,0
151877.025,74.5814,-620.452,0,0
153178.65,79.3816,-602.236,0,0
154480,86.2334,-584.377,0,0
155782,95.8602,-566.684,0,0
157084,107.869,-551.099,0,0
158385,120.672,-538.864,0,0
159687,130.486,-529.91,0,0
160988,134.167,-515.061,0,0
162290,144.187,-491.633,0,0
163592,163.665,-468.586,0,0
164893,191.729,-449.434,0,0
166195,221.843,-434.218,0,0
167497,267.673,-422.428,0,0
168798,319.265,-432.29,0,0
170100,361.426,-462.286,0,0
171401.375,395.454,-506.569,0,0
172703.0,404.903,-557.797,0,0
174004.625,386.633,-609.873,0,0
175306.25,351.292,-634.258,0,0
176607.875,325.906,-626.776,0,0
177909.5,332.922,-629.172,0,0
179211.125,334.687,-664.682,0,0
180512.75,297.57,-688.675,0,0
181814.375,262.427,-699.863,0,0
183116.0,218.937,-691.223,0,0
184417.625,188.864,-668.492,0,0
185719.25,172.823,-643.929,0,0
187021,157.234,-619.817,0,0
188322,152.237,-592.928,0,0
189624,148.357,-576.868,0,0
190926,141.297,-554.162,0,0
192227,140.652,-528.222,0,0
193529,143.543,-504.122,0,0
194831,149.765,-479.456,0,0
196132,161.026,-457.06,0,0
197434,174.113,-437.682,0,0
198735,187.103,-419.356,0,0
200037,201.294,-400.411,0,0
201339,220.459,-379.653,0,0
202640.35,245.37,-359.656,0,0
203941.975,277.195,-344.856,0,0
205243.6,313.554,-338.641,0,0
206545.225,351.191,-341.797,0,0
207846.85,379.159,-354.095,0,0
209148.475,405.154,-353.094,0,0
210450.1,455.994,-366.835,0,0
211751.725,493.996,-410.107,0,0
213053.35,505.839,-455.651,0,0
214354.975,508.573,-498.746,0,0
215656.6,495.455,-534.849,0,0
216958.225,486.045,-562.512,0,0
218259.85,464.665,-592.423,0,0
219561,434.27,-609.731,0,0
220863,403.132,-605.832,0,0
222165,387.402,-592.604,0,0
223466,384.739,-580.214,0,0
224768,387.28,-571.74,0,0
226070,396.914,-564.374,0,0
227371,415.037,-568.79,0,0
228673,430.778,-582.016,0,0
229974,442.181,-609.478,0,0
231276,441.343,-641.778,0,0
232578,426.815,-671.811,0,0
233879,404.654,-702.427,0,0
235180.95,360.124,-721.734,0,0
236482.575,320.826,-711.94,0,0
237784.2,298.267,-700.278,0,0
239085.825,274.065,-684.109,0,0
240387.45,267.12,-663.265,0,0
241689.075,263.463,-656.417,0,0
242990.7,251.479,-649.145,0,0
244292.325,242.826,-631.194,0,0
245593.95,246.654,-613.808,0,0
246895.575,252.371,-608.415,0,0
248197.2,253.353,-604.112,0,0
249498.825,255.804,-598.701,0,0
250800,259.817,-596.016,0,0
252102,263.091,-595.369,0,0
253404,265.935,-598.307,0,0
254705,265.397,-603.979,0,0
256007,258.42,-609.001,0,0
257309,248.985,-608.095,0,0
258610,240.633,-603.101,0,0
259912,236.013,-595.284,0,0
261213,233.616,-586.037,0,0
262515,237.499,-574.643,0,0
263817,249.603,-570.146,0,0
265118,257.964,-576.426,0,0
266420,259.577,-581.164,0,0
267721.55,262.963,-585.561,0,0
269023.175,263.656,-593.061,0,0
270324.8,264.225,-598.159,0,0
271626.425,268.043,-607.744,0,0
272928.05,270.998,-628.098,0,0
274229.675,253.179,-657.053,0,0
275531.3,216.68,-670.306,0,0
276832.925,180.233,-662.44,0,0
278134.55,154.326,-641.482,0,0
279436.175,142.428,-617.001,0,0
280737.8,138.97,-596.998,0,0
282039.425,138.709,-582.638,0,0
283341,136.556,-570.006,0,0
284643,135.989,-555.057,0,0
285944,140.682,-541.277,0,0
287246,146.908,-532.193,0,0
288548,150.634,-525.507,0,0
289849,154.283,-516.55,0,0
291151,160.513,-508.331,0,0
292452,168.116,-502.035,0,0
293754,175.985,-497.123,0,0
295056,184.249,-492.849,0,0
296357,194.352,-488.939,0,0
297659,207.103,-487.567,0,0
298960.525,221.14,-490.387,0,0
300262.15,234.921,-497.063,0,0
301563.775,249.911,-508.444,0,0
302865.4,263.559,-530.778,0,0
304167.025,260.336,-561.656,0,0
305468.65,245.052,-583.377,0,0
306770.275,225.514,-597.45,0,0
308071.9,204.217,-603.676,0,0
309373.525,184.667,-603.334,0,0
310675.15,168.769,-598.799,0,0
311976.775,156.117,-592.512,0,0
313278.4,146.254,-586.028,0,0
314580,137.244,-579.145,0,0
315882,130.081,-570.869,0,0
317183,125.589,-562.97,0,0
318485,122.381,-556.311,0,0
319787,119.781,-549.962,0,0
321088,118.646,-544.866,0,0
322390,117.134,-541.363,0,0
323691,114.793,-538.41,0,0
324993,112.165,-535.148,0,0
326295,109.638,-531.941,0,0
327596,107.095,-529.148,0,0
328898,104.113,-526.582,0,0
330200,100.768,-523.637,0,0
331501.125,97.497,-520.679,0,0
332802.75,93.4949,-518.083,0,0
334104.375,88.4239,-514.398,0,0
335406.0,83.7382,-509.498,0,0
336707.625,79.6167,-503.867,0,0
338009.25,76.1002,-497.386,0,0
339310.875,73.7587,-490.659,0,0
340612.5,72.119,-484.193,0,0
341914.125,70.9614,-477.669,0,0
343215.75,70.6104,-471.249,0,0
344517.375,71.0297,-465.249,0,0
345819.0,72.1275,-460.164,0,0
347121,72.8584,-456.019,0,0
348422,72.8103,-452.299,0,0
349724,72.1927,-448.038,0,0
351025,71.9229,-443.047,0,0
352327,72.356,-437.623,0,0
353629,73.9229,-432.513,0,0
354930,76.1533,-428.6,0,0
356232,77.9627,-426.047,0,0
357534,78.2411,-423.755,0,0
358835,77.6515,-420.708,0,0
360137,77.1572,-416.049,0,0
361438,78.2445,-410.79,0,0
362740.1,80.4108,-406.204,0,0
364041.725,82.9902,-402.49,0,0
365343.35,85.6857,-399.371,0,0
366644.975,88.3826,-397.201,0,0
367946.6,90.3952,-395.339,0,0
369248.225,92.5334,-393.787,0,0
370549.85,93.9992,-393.324,0,0
371851.475,93.4101,-392.493,0,0
373153.1,92.55,-389.56,0,0
374454.725,92.9812,-385.84,0,0
375756.35,94.1925,-382.361,0,0
377057.975,95.689,-379.078,0,0
378359.6,97.1964,-375.93,0,0
379661,99.2519,-372.46,0,0
380963,101.893,-369.379,0,0
382264,104.777,-366.748,0,0
383566,107.944,-364.6,0,0
384868,110.87,-362.917,0,0
386169,113.475,-361.51,0,0
387471,115.814,-359.528,0,0
388773,118.801,-357.376,0,0
390074,122.544,-355.299,0,0
391376,126.78,-354.056,0,0
392677,130.734,-353.352,0,0
393979,135.119,-352.233,0,0
395280.7,140.651,-351.626,0,0
396582.325,147.258,-352.503,0,0
397883.95,154.494,-355.143,0,0
399185.575,161.676,-361.29,0,0
400006.6,164.793,-367.167,0,0