File: Accelerated corrosion test data/2025-10-01_06-00-03/sample_8.csv
Frequency (Hz),Impedance (ohms),Phase (Radians),Temperature (C),Humidity (%)
10000.0,317.749,-10950.9,0,0
11301.625,282.019,-9705.23,0,0
12603.25,258.528,-8715.28,0,0
13904.875,230.133,-7916.22,0,0
15206.5,209.108,-7243.84,0,0
16508.125,192.948,-6678.29,0,0
17809.75,179.767,-6193.24,0,0
19111.375,170.49,-5771.83,0,0
20413.0,162.329,-5409.97,0,0
21714.625,153.462,-5089.53,0,0
23016.25,147.134,-4807.32,0,0
24317.875,136.265,-4551.64,0,0
25619.5,129.616,-4319.17,0,0
26921.1,123.857,-4108.81,0,0
28222.7,120.61,-3918.6,0,0
29524.4,117.875,-3745.62,0,0
30826,115.509,-3588.74,0,0
32127.6,112.408,-3443.05,0,0
33429.2,112.598,-3307.67,0,0
34730.9,111.763,-3188.07,0,0
36032.5,108.044,-3078.35,0,0
37334.1,101.586,-2973.08,0,0
38635.7,94.6739,-2872.98,0,0
39937.4,88.7456,-2776.94,0,0
41239,86.1668,-2686.19,0,0
42540.6,83.5529,-2601.49,0,0
43842.225,83.0607,-2522.99,0,0
45143.85,79.5898,-2449.2,0,0
46445.475,77.1861,-2378.64,0,0
47747.1,75.5657,-2311.29,0,0
49048.725,73.7133,-2248.41,0,0
50350.35,71.5491,-2187.58,0,0
51651.975,70.5632,-2129.5,0,0
52953.6,70.175,-2075.18,0,0
54255.225,69.1932,-2025.19,0,0
55556.85,66.0131,-1975.75,0,0
56858.475,63.7677,-1926.9,0,0
58160.1,62.8402,-1880.08,0,0
59461.7,62.8543,-1836.02,0,0
60763.3,61.2935,-1793.78,0,0
62065,61.1882,-1752.71,0,0
63366.6,61.2483,-1712.87,0,0
64668.2,62.8574,-1676.02,0,0
65969.8,62.2356,-1642.44,0,0
67271.5,59.7255,-1608.22,0,0
68573.1,58.9212,-1573.98,0,0
69874.7,58.3352,-1540.75,0,0
71176.3,58.8485,-1509.14,0,0
72478,59.3621,-1479.4,0,0
73779.6,58.3827,-1450.59,0,0
75081.2,57.9666,-1422.29,0,0
76382.825,57.8649,-1394.05,0,0
77684.45,57.8832,-1367.4,0,0
78986.075,57.4032,-1341.23,0,0
80287.7,57.4261,-1315.15,0,0
81589.325,57.832,-1289.84,0,0
82890.95,58.6058,-1264.67,0,0
84192.575,60.4946,-1240.86,0,0
85494.2,62.3248,-1219.04,0,0
86795.825,62.3186,-1197.36,0,0
88097.45,63.4645,-1174.77,0,0
89399.075,65.5122,-1153.27,0,0
90700.7,68.2186,-1132.38,0,0
92002.3,72.6604,-1112.73,0,0
93303.9,76.2506,-1097.55,0,0
94605.6,74.9912,-1081.83,0,0
95907.2,76.4266,-1063.41,0,0
97208.8,77.6094,-1046.2,0,0
98510.4,80.0601,-1030.69,0,0
99812.1,80.8485,-1016.72,0,0
101114,81.3891,-1001.63,0,0
102415,80.7451,-987.391,0,0
103717,80.1688,-972.33,0,0
105019,79.4287,-957.258,0,0
106320.175,79.4498,-941.319,0,0
107621.8,80.8296,-926.697,0,0
108923.425,81.1466,-912.44,0,0
110225.05,82.2914,-898.728,0,0
111526.675,82.4488,-885.916,0,0
112828.3,82.626,-872.637,0,0
114129.925,82.517,-859.753,0,0
115431.55,82.0573,-846.611,0,0
116733.175,81.6113,-833.675,0,0
118034.8,80.6952,-820.209,0,0
119336.425,80.9553,-806.308,0,0
120638.05,80.6291,-793.302,0,0
121939.675,80.4977,-779.519,0,0
123241,80.9854,-765.964,0,0
124543,80.979,-752.333,0,0
125845,82.1316,-738.625,0,0
127146,83.3674,-725.274,0,0
128448,84.6557,-712.539,0,0
129749,85.2287,-700.177,0,0
131051,84.8058,-686.522,0,0
132353,87.4408,-671.779,0,0
133654,89.0816,-658.213,0,0
134956,91.4778,-645.257,0,0
136258,94.3084,-631.98,0,0
137559,97.1916,-620.616,0,0
138860.775,96.1599,-608.994,0,0
140162.4,96.7874,-593.508,0,0
141464.025,98.2039,-578.296,0,0
142765.65,100.449,-561.63,0,0
144067.275,103.8,-544.433,0,0
145368.9,109.144,-524.897,0,0
146670.525,119.348,-506.575,0,0
147972.15,130.643,-492.067,0,0
149273.775,136.793,-477.313,0,0
150575.4,150.728,-456.765,0,0
151877.025,172.636,-441.391,0,0
153178.65,194.115,-442.296,0,0
154480,202.15,-443.372,0,0
155782,208.308,-434.362,0,0
157084,223.588,-434.86,0,0
158385,218.003,-429.447,0,0
159687,230.566,-409.986,0,0
160988,245.534,-413.308,0,0
162290,248.794,-402.33,0,0
163592,266.115,-394.447,0,0
164893,279.68,-399.487,0,0
166195,285.824,-403.381,0,0
167497,279.17,-409.09,0,0
168798,268.598,-398.435,0,0
170100,265.504,-377.675,0,0
171401.375,269.474,-355.886,0,0
172703.0,279.2,-330.597,0,0
174004.625,299.106,-308.152,0,0
175306.25,322.344,-292.922,0,0
176607.875,340.524,-279.638,0,0
177909.5,366.283,-261.809,0,0
179211.125,396.316,-248.662,0,0
180512.75,430.694,-241.978,0,0
181814.375,464.112,-240.544,0,0
183116.0,495.138,-243.156,0,0
184417.625,522.865,-247.318,0,0
185719.25,550.91,-248.418,0,0
187021,588.9,-243.933,0,0
188322,633.334,-250.228,0,0
189624,686.352,-270.55,0,0
190926,724.765,-299.688,0,0
192227,771.094,-323.312,0,0
193529,817.309,-369.102,0,0
194831,872.784,-419.603,0,0
196132,910.5,-514.209,0,0
197434,917.191,-620.218,0,0
198735,874.306,-718.859,0,0
200037,815.378,-787.558,0,0
201339,741.927,-831.528,0,0
202640.35,678.316,-851.845,0,0
203941.975,613.722,-858.215,0,0
205243.6,558.851,-843.646,0,0
206545.225,522.842,-822.913,0,0
207846.85,499.751,-797.57,0,0
209148.475,491.554,-780.021,0,0
210450.1,487.155,-766.614,0,0
211751.725,489.168,-761.869,0,0
213053.35,490.181,-764.189,0,0
214354.975,487.937,-775.51,0,0
215656.6,472.942,-786.859,0,0
216958.225,454.77,-786.532,0,0
218259.85,446.194,-778.85,0,0
219561,447.724,-778.415,0,0
220863,447.374,-786.45,0,0
222165,443.952,-800.196,0,0
223466,432.402,-817.585,0,0
224768,413.271,-829.377,0,0
226070,394.408,-838.392,0,0
227371,370.872,-846.393,0,0
228673,346.086,-846.755,0,0
229974,324.765,-843.28,0,0
231276,304.002,-840.376,0,0
232578,282.605,-834.564,0,0
233879,261.45,-825.45,0,0
235180.95,242.443,-812.387,0,0
236482.575,228.009,-796.583,0,0
237784.2,218.469,-780.82,0,0
239085.825,212.27,-767.653,0,0
240387.45,208.009,-757.415,0,0
241689.075,201.737,-751.033,0,0
242990.7,191.513,-742.874,0,0
244292.325,182.405,-731.093,0,0
245593.95,175.523,-719.07,0,0
246895.575,169.326,-705.124,0,0
248197.2,167.045,-691.079,0,0
249498.825,165.689,-678.73,0,0
250800,166.022,-665.764,0,0
252102,168.719,-653.673,0,0
253404,174.637,-644.939,0,0
254705,177.309,-640.059,0,0
256007,178.811,-632.332,0,0
257309,183.409,-624.803,0,0
258610,188.754,-618.97,0,0
259912,195.617,-615.403,0,0
261213,201.118,-614.433,0,0
262515,206.284,-614.77,0,0
263817,208.569,-614.892,0,0
265118,211.348,-615.175,0,0
266420,214.937,-612.625,0,0
267721.55,224.147,-611.903,0,0
269023.175,235.845,-618.559,0,0
270324.8,244.293,-634.06,0,0
271626.425,244.538,-654.171,0,0
272928.05,235.038,-675.196,0,0
274229.675,214.302,-690.877,0,0
275531.3,190.12,-695.108,0,0
276832.925,168.761,-689.661,0,0
278134.55,154.357,-681.046,0,0
279436.175,142.6,-672.107,0,0
280737.8,133.786,-661.555,0,0
282039.425,129.264,-651.8,0,0
283341,125.682,-643.593,0,0
284643,123.609,-635.995,0,0
285944,123.719,-629.823,0,0
287246,125.591,-626.925,0,0
288548,124.955,-629.573,0,0
289849,118.176,-631.644,0,0
291151,109.631,-629.939,0,0
292452,102.009,-626.489,0,0
293754,93.6643,-621.884,0,0
295056,86.0257,-614.781,0,0
296357,80.6118,-606.797,0,0
297659,76.2154,-598.791,0,0
298960.525,73.0239,-590.585,0,0
300262.15,71.0172,-582.547,0,0
301563.775,69.9523,-574.943,0,0
302865.4,70.03,-567.661,0,0
304167.025,71.1698,-561.751,0,0
305468.65,72.0965,-557.352,0,0
306770.275,72.7033,-553.305,0,0
308071.9,73.4233,-550.286,0,0
309373.525,73.4411,-548.103,0,0
310675.15,72.086,-546.209,0,0
311976.775,70.3002,-543.556,0,0
313278.4,68.4637,-540.7,0,0
314580,66.3048,-537.757,0,0
315882,63.7081,-533.876,0,0
317183,62.0255,-529.434,0,0
318485,61.1691,-525.058,0,0
319787,60.8963,-521.305,0,0
321088,60.589,-518.391,0,0
322390,59.6873,-516.133,0,0
323691,58.0466,-513.68,0,0
324993,56.115,-511.127,0,0
326295,53.8219,-507.978,0,0
327596,51.6564,-504.267,0,0
328898,49.7354,-500.391,0,0
330200,48.049,-496.267,0,0
331501.125,46.6959,-491.934,0,0
332802.75,45.6251,-487.735,0,0
334104.375,44.7544,-483.393,0,0
335406.0,44.4919,-479.109,0,0
336707.625,44.4565,-475.301,0,0
338009.25,44.3967,-471.922,0,0
339310.875,44.1442,-468.693,0,0
340612.5,43.7287,-465.624,0,0
341914.125,43.1209,-462.551,0,0
343215.75,42.3098,-459.209,0,0
344517.375,41.5144,-455.596,0,0
345819.0,41.1537,-451.89,0,0
347121,40.9082,-448.143,0,0
348422,41.0104,-444.453,0,0
349724,41.2601,-440.914,0,0
351025,41.7256,-437.554,0,0
352327,42.2147,-434.543,0,0
353629,42.6281,-431.753,0,0
354930,43.0014,-428.976,0,0
356232,43.3363,-426.364,0,0
357534,43.5904,-424.02,0,0
358835,43.4566,-421.647,0,0
360137,43.21,-419.029,0,0
361438,43.0192,-416.136,0,0
362740.1,43.0324,-413.173,0,0
364041.725,43.2054,-410.05,0,0
365343.35,43.7163,-406.975,0,0
366644.975,44.4963,-404.132,0,0
367946.6,45.3082,-401.641,0,0
369248.225,46.045,-399.149,0,0
370549.85,47.0585,-396.657,0,0
371851.475,48.3455,-394.769,0,0
373153.1,49.1885,-393.408,0,0
374454.725,49.5702,-392.139,0,0
375756.35,49.7295,-390.525,0,0
377057.975,50.0376,-388.981,0,0
378359.6,50.1099,-387.647,0,0
379661,49.7209,-386.011,0,0
380963,50.0868,-383.775,0,0
382264,51.0207,-383.183,0,0
383566,49.7413,-382.983,0,0
384868,47.9458,-381.273,0,0
386169,46.5758,-378.781,0,0
387471,45.6347,-375.996,0,0
388773,45.0972,-372.983,0,0
390074,45.0434,-370.057,0,0
391376,45.1773,-367.528,0,0
392677,45.085,-365.069,0,0
393979,45.0158,-362.462,0,0
395280.7,45.06,-359.725,0,0
396582.325,45.3992,-357.008,0,0
397883.95,45.8866,-354.534,0,0
399185.575,46.2803,-352.29,0,0
400006.6,46.4206,-350.904,0,0