File: Accelerated corrosion test data/2025-10-01_06-00-03/sample_3.csv
Frequency (Hz),Impedance (ohms),Phase (Radians),Temperature (C),Humidity (%)
10000.0,255.862,-11765.4,0,0
11301.625,227.494,-10421.2,0,0
12603.25,205.939,-9353.46,0,0
13904.875,188.281,-8482.96,0,0
15206.5,176.212,-7755.53,0,0
16508.125,164.963,-7161.56,0,0
17809.75,159.337,-6633.31,0,0
19111.375,147.854,-6182.3,0,0
20413.0,158.804,-5781.18,0,0
21714.625,140.294,-5463.61,0,0
23016.25,129.432,-5158,0,0
24317.875,120.783,-4879.28,0,0
25619.5,115.676,-4633.14,0,0
26921.1,109.389,-4403.16,0,0
28222.7,105.331,-4197.13,0,0
29524.4,110.976,-4018.15,0,0
30826,101.978,-3847.87,0,0
32127.6,102.948,-3684.29,0,0
33429.2,101.216,-3558.89,0,0
34730.9,89.2403,-3422.18,0,0
36032.5,84.7597,-3294.75,0,0
37334.1,81.8328,-3177.31,0,0
38635.7,79.3938,-3067.26,0,0
39937.4,76.7918,-2965.16,0,0
41239,75.4208,-2868.14,0,0
42540.6,74.7087,-2778.89,0,0
43842.225,73.0939,-2693.28,0,0
45143.85,71.8019,-2614.03,0,0
46445.475,71.1687,-2538.22,0,0
47747.1,71.0625,-2465.73,0,0
49048.725,69.734,-2400.54,0,0
50350.35,67.5766,-2335.44,0,0
51651.975,67.305,-2273.11,0,0
52953.6,67.5814,-2213.27,0,0
54255.225,70.2774,-2158.81,0,0
55556.85,67.9114,-2111.48,0,0
56858.475,62.7109,-2058.72,0,0
58160.1,62.0986,-2006.71,0,0
59461.7,62.6816,-1957.69,0,0
60763.3,64.1573,-1910.92,0,0
62065,66.1914,-1866.47,0,0
63366.6,69.621,-1823,0,0
64668.2,78.1011,-1781.65,0,0
65969.8,92.7334,-1755.17,0,0
67271.5,77.466,-1730.93,0,0
68573.1,77.2331,-1693.62,0,0
69874.7,76.5053,-1664.32,0,0
71176.3,71.3083,-1633.59,0,0
72478,69.7817,-1601,0,0
73779.6,68.208,-1572.61,0,0
75081.2,64.6543,-1544.22,0,0
76382.825,61.1562,-1515.06,0,0
77684.45,58.7637,-1486.18,0,0
78986.075,56.5838,-1457.73,0,0
80287.7,55.0683,-1429.74,0,0
81589.325,54.0163,-1402.61,0,0
82890.95,53.4943,-1376.17,0,0
84192.575,53.2388,-1350.51,0,0
85494.2,53.1618,-1325.51,0,0
86795.825,53.2945,-1301.2,0,0
88097.45,53.7402,-1277.13,0,0
89399.075,55.0773,-1253.56,0,0
90700.7,57.4424,-1231.34,0,0
92002.3,60.1217,-1210.23,0,0
93303.9,63.6809,-1191.57,0,0
94605.6,65.6087,-1177.15,0,0
95907.2,59.906,-1160.15,0,0
97208.8,59.0292,-1139.12,0,0
98510.4,59.1994,-1120.27,0,0
99812.1,58.38,-1102.11,0,0
101114,57.3452,-1082.7,0,0
102415,58.3387,-1062.11,0,0
103717,62.4248,-1044.25,0,0
105019,66.4595,-1030.54,0,0
106320.175,64.7255,-1018.27,0,0
107621.8,61.2551,-1002.33,0,0
108923.425,59.0911,-984.219,0,0
110225.05,59.0729,-965.174,0,0
111526.675,61.4394,-947.084,0,0
112828.3,63.5587,-930.985,0,0
114129.925,65.1188,-914.655,0,0
115431.55,67.5826,-898.079,0,0
116733.175,71.3118,-881.613,0,0
118034.8,76.9526,-866.089,0,0
119336.425,83.9412,-854.499,0,0
120638.05,88.6152,-848.221,0,0
121939.675,86.6968,-839.042,0,0
123241,86.9895,-826.186,0,0
124543,88.3289,-814.952,0,0
125845,89.2607,-804.804,0,0
127146,88.5181,-794.862,0,0
128448,86.4134,-783.675,0,0
129749,84.8716,-770.388,0,0
131051,85.6645,-756.966,0,0
132353,85.3795,-745.741,0,0
133654,84.692,-733.398,0,0
134956,83.5057,-720.602,0,0
136258,82.4165,-706.907,0,0
137559,82.6241,-691.856,0,0
138860.775,84.0036,-678.347,0,0
140162.4,83.3041,-665.142,0,0
141464.025,83.2715,-650.386,0,0
142765.65,82.8837,-634.81,0,0
144067.275,83.2338,-617.775,0,0
145368.9,84.9108,-599.971,0,0
146670.525,87.4082,-581.178,0,0
147972.15,91.8976,-561.264,0,0
149273.775,98.4988,-540.959,0,0
150575.4,108.505,-520.475,0,0
151877.025,121.64,-503.262,0,0
153178.65,134.604,-489.05,0,0
154480,145.513,-476.682,0,0
155782,153.751,-461.387,0,0
157084,165.923,-444.823,0,0
158385,181.232,-431.26,0,0
159687,189.963,-416.706,0,0
160988,202.421,-389.885,0,0
162290,231.009,-363.421,0,0
163592,270.291,-346.5,0,0
164893,315.362,-337.658,0,0
166195,367.954,-352.146,0,0
167497,404.005,-383.604,0,0
168798,424.082,-420.265,0,0
170100,429.844,-456.849,0,0
171401.375,414.134,-477.884,0,0
172703.0,408.398,-482.72,0,0
174004.625,412.56,-488.079,0,0
175306.25,421.244,-507.579,0,0
176607.875,409.673,-530.842,0,0
177909.5,392.186,-544.058,0,0
179211.125,366.502,-539.655,0,0
180512.75,357.573,-525.032,0,0
181814.375,362.339,-519.588,0,0
183116.0,356.508,-527.14,0,0
184417.625,341.43,-523.092,0,0
185719.25,328.363,-508.639,0,0
187021,322.641,-487.766,0,0
188322,327.95,-468.14,0,0
189624,334.942,-454.608,0,0
190926,343.746,-438.561,0,0
192227,353.526,-425.405,0,0
193529,365.053,-409.141,0,0
194831,386.581,-390.2,0,0
196132,420.624,-387.253,0,0
197434,443.74,-398.947,0,0
198735,453.047,-408.689,0,0
200037,460.246,-407.286,0,0
201339,469.532,-406.142,0,0
202640.35,482.68,-398.209,0,0
203941.975,508.588,-391.392,0,0
205243.6,540.467,-397.218,0,0
206545.225,561.7,-415.77,0,0
207846.85,576.346,-423.48,0,0
209148.475,601.614,-427.657,0,0
210450.1,635.609,-443.548,0,0
211751.725,665.433,-472.264,0,0
213053.35,688.576,-505.834,0,0
214354.975,708.555,-546.882,0,0
215656.6,717.95,-593.641,0,0
216958.225,719.845,-641.206,0,0
218259.85,708.413,-690.17,0,0
219561,686.47,-732.48,0,0
220863,667.788,-766.524,0,0
222165,637.387,-808.176,0,0
223466,592.75,-834.73,0,0
224768,550.118,-841.413,0,0
226070,522.611,-839.131,0,0
227371,505.531,-846.759,0,0
228673,480.73,-857.843,0,0
229974,451.324,-866.551,0,0
231276,420.552,-867.984,0,0
232578,392.764,-864.39,0,0
233879,368.285,-859.55,0,0
235180.95,344.925,-854.53,0,0
236482.575,320.993,-848.452,0,0
237784.2,296.997,-838.511,0,0
239085.825,274.104,-824.795,0,0
240387.45,255.632,-806.651,0,0
241689.075,242.513,-788.021,0,0
242990.7,233.707,-769.696,0,0
244292.325,228.849,-753.843,0,0
245593.95,224.411,-741.831,0,0
246895.575,219.836,-729.852,0,0
248197.2,215.871,-717.916,0,0
249498.825,214.689,-706.29,0,0
250800,214.291,-698.541,0,0
252102,210.172,-693.263,0,0
253404,202.494,-684.195,0,0
254705,197.244,-669.367,0,0
256007,197.297,-652.883,0,0
257309,204.833,-637.366,0,0
258610,215.662,-629.158,0,0
259912,225.557,-622.73,0,0
261213,240.383,-622.661,0,0
262515,251.771,-632.618,0,0
263817,253.017,-647.265,0,0
265118,245.192,-659.794,0,0
266420,230.321,-665.976,0,0
267721.55,215.285,-663.018,0,0
269023.175,204.668,-654.552,0,0
270324.8,198.855,-644.824,0,0
271626.425,196.442,-635.561,0,0
272928.05,196.264,-627.898,0,0
274229.675,196.374,-621.66,0,0
275531.3,198.365,-614.196,0,0
276832.925,204.378,-608.581,0,0
278134.55,212.94,-609.38,0,0
279436.175,217.29,-616.399,0,0
280737.8,214.129,-625.131,0,0
282039.425,207.023,-628.701,0,0
283341,199.56,-630.568,0,0
284643,191.101,-629.14,0,0
285944,183.63,-625.637,0,0
287246,177.28,-619.39,0,0
288548,175.456,-611.71,0,0
289849,176.798,-607.77,0,0
291151,176.035,-606.612,0,0
292452,173.746,-604.954,0,0
293754,171.541,-601.553,0,0
295056,172.338,-598.262,0,0
296357,174.206,-598.444,0,0
297659,173.597,-601.387,0,0
298960.525,169.705,-604.79,0,0
300262.15,163.556,-606.126,0,0
301563.775,156.906,-605.855,0,0
302865.4,149.847,-603.938,0,0
304167.025,143.402,-600.381,0,0
305468.65,137.9,-595.622,0,0
306770.275,133.712,-590.416,0,0
308071.9,131.049,-585.161,0,0
309373.525,129.35,-581.462,0,0
310675.15,126.64,-578.856,0,0
311976.775,122.89,-575.576,0,0
313278.4,118.804,-571.432,0,0
314580,115.254,-565.464,0,0
315882,113.936,-558.806,0,0
317183,114.854,-553.452,0,0
318485,116.079,-550.303,0,0
319787,116.067,-547.961,0,0
321088,115.772,-545.616,0,0
322390,116.26,-543.509,0,0
323691,116.481,-543.247,0,0
324993,115.057,-543.894,0,0
326295,111.919,-544.211,0,0
327596,107.689,-543.356,0,0
328898,103.453,-541.203,0,0
330200,99.7182,-538.747,0,0
331501.125,95.4114,-536.177,0,0
332802.75,90.9005,-532.666,0,0
334104.375,86.4983,-528.207,0,0
335406.0,82.5854,-522.761,0,0
336707.625,79.8411,-516.518,0,0
338009.25,78.1016,-510.392,0,0
339310.875,76.8713,-504.04,0,0
340612.5,77.147,-497.379,0,0
341914.125,79.0036,-491.806,0,0
343215.75,81.4165,-488.152,0,0
344517.375,83.0424,-486.144,0,0
345819.0,83.1892,-484.453,0,0
347121,82.5812,-482.334,0,0
348422,81.6973,-479.417,0,0
349724,81.6218,-475.854,0,0
351025,82.4614,-472.792,0,0
352327,83.6474,-471.019,0,0
353629,83.7544,-470.484,0,0
354930,82.0747,-469.542,0,0
356232,79.9159,-467.237,0,0
357534,78.4498,-464.088,0,0
358835,77.3851,-460.894,0,0
360137,76.5858,-457.318,0,0
361438,76.4289,-453.82,0,0
362740.1,76.7883,-450.461,0,0
364041.725,77.6039,-447.532,0,0
365343.35,78.8451,-445.409,0,0
366644.975,79.5862,-445.049,0,0
367946.6,77.8524,-444.865,0,0
369248.225,74.839,-442.055,0,0
370549.85,74.2179,-436.989,0,0
371851.475,76.1571,-434.017,0,0
373153.1,76.7291,-433.35,0,0
374454.725,75.4215,-432.116,0,0
375756.35,73.9478,-429.593,0,0
377057.975,73.0163,-426.091,0,0
378359.6,73.3895,-422.433,0,0
379661,74.3673,-419.859,0,0
380963,75.1026,-417.855,0,0
382264,75.806,-416.159,0,0
383566,76.0066,-415.316,0,0
384868,75.0095,-414.346,0,0
386169,73.5331,-412.322,0,0
387471,72.3332,-409.506,0,0
388773,71.5649,-406.17,0,0
390074,71.3775,-402.534,0,0
391376,72.1327,-398.77,0,0
392677,73.7377,-395.388,0,0
393979,76.0112,-392.884,0,0
395280.7,78.4418,-391.487,0,0
396582.325,80.4571,-391.267,0,0
397883.95,81.5096,-391.749,0,0
399185.575,81.433,-392.425,0,0
400006.6,80.686,-392.658,0,0