File: Accelerated corrosion test data/2025-10-01_06-00-03/sample_2.csv
Frequency (Hz),Impedance (ohms),Phase (Radians),Temperature (C),Humidity (%)
10000.0,226.44,-11392.7,0,0
11301.625,201.714,-10089.7,0,0
12603.25,181.908,-9058.03,0,0
13904.875,184.919,-8217.86,0,0
15206.5,163.6,-7527.19,0,0
16508.125,142.294,-6934.52,0,0
17809.75,131.517,-6428.17,0,0
19111.375,128.385,-5990.36,0,0
20413.0,117.734,-5608.6,0,0
21714.625,127.48,-5278.8,0,0
23016.25,111.631,-4985.49,0,0
24317.875,102.536,-4720.14,0,0
25619.5,96.6718,-4477.6,0,0
26921.1,94.8205,-4260.19,0,0
28222.7,90.1189,-4061.31,0,0
29524.4,93.3971,-3877.88,0,0
30826,88.0724,-3723.91,0,0
32127.6,82.0697,-3571.25,0,0
33429.2,79.648,-3432.86,0,0
34730.9,75.553,-3302.66,0,0
36032.5,72.8288,-3181.68,0,0
37334.1,71.0571,-3068.54,0,0
38635.7,68.7419,-2963.66,0,0
39937.4,67.0519,-2865.33,0,0
41239,65.5782,-2772.6,0,0
42540.6,64.4311,-2686.61,0,0
43842.225,63.2698,-2604.7,0,0
45143.85,61.8572,-2527.34,0,0
46445.475,61.2648,-2455.21,0,0
47747.1,60.8414,-2386.16,0,0
49048.725,60.7309,-2322.3,0,0
50350.35,57.9689,-2260.31,0,0
51651.975,56.8735,-2201.45,0,0
52953.6,55.1727,-2144.43,0,0
54255.225,54.423,-2089.92,0,0
55556.85,54.0818,-2038.12,0,0
56858.475,53.8777,-1988.4,0,0
58160.1,54.2939,-1941.29,0,0
59461.7,54.6721,-1895.62,0,0
60763.3,55.9466,-1853.11,0,0
62065,59.0176,-1815.04,0,0
63366.6,56.197,-1778.25,0,0
64668.2,53.0503,-1740.5,0,0
65969.8,50.756,-1701.64,0,0
67271.5,51.2953,-1664.06,0,0
68573.1,53.5436,-1630.3,0,0
69874.7,56.0452,-1599.9,0,0
71176.3,53.0587,-1571.88,0,0
72478,47.8042,-1541.67,0,0
73779.6,45.3767,-1508.8,0,0
75081.2,45.2479,-1476.75,0,0
76382.825,47.0074,-1446.54,0,0
77684.45,49.6348,-1418.33,0,0
78986.075,53.1192,-1393.9,0,0
80287.7,52.0649,-1372.7,0,0
81589.325,49.393,-1347.76,0,0
82890.95,48.095,-1322.28,0,0
84192.575,48.868,-1297.38,0,0
85494.2,49.5691,-1274.06,0,0
86795.825,50.2611,-1251.98,0,0
88097.45,50.8744,-1230.85,0,0
89399.075,50.9928,-1209.25,0,0
90700.7,51.5515,-1189.05,0,0
92002.3,52.8754,-1167.91,0,0
93303.9,55.9856,-1149.47,0,0
94605.6,55.1897,-1133.22,0,0
95907.2,54.5195,-1113.25,0,0
97208.8,57.3178,-1096.51,0,0
98510.4,57.7702,-1082.45,0,0
99812.1,53.4169,-1068.51,0,0
101114,50.2032,-1050.3,0,0
102415,47.5392,-1030.34,0,0
103717,46.2692,-1009.61,0,0
105019,49.4401,-989.4,0,0
106320.175,54.3514,-972.293,0,0
107621.8,57.6315,-960.314,0,0
108923.425,56.4151,-948.511,0,0
110225.05,53.0004,-933.44,0,0
111526.675,51.8083,-915.966,0,0
112828.3,51.9562,-898.583,0,0
114129.925,53.604,-881.267,0,0
115431.55,55.9803,-865.039,0,0
116733.175,59.0569,-849.327,0,0
118034.8,62.8407,-834.971,0,0
119336.425,66.7648,-822.267,0,0
120638.05,69.8298,-811.94,0,0
121939.675,69.2771,-800.699,0,0
123241,69.0051,-787.808,0,0
124543,68.9281,-774.671,0,0
125845,68.7757,-760.472,0,0
127146,69.834,-745.277,0,0
128448,72.7434,-730.41,0,0
129749,76.2189,-717.05,0,0
131051,79.3772,-704.933,0,0
132353,81.3362,-693.323,0,0
133654,82.2159,-680.729,0,0
134956,83.4114,-667.117,0,0
136258,84.9035,-652.996,0,0
137559,87.3967,-638.157,0,0
138860.775,89.7219,-623.29,0,0
140162.4,92.2892,-606.905,0,0
141464.025,97.2217,-588.592,0,0
142765.65,105.765,-570.901,0,0
144067.275,115.11,-555.127,0,0
145368.9,125.869,-539.52,0,0
146670.525,137.282,-524.556,0,0
147972.15,151.916,-508.617,0,0
149273.775,171.602,-493.34,0,0
150575.4,199.179,-486.846,0,0
151877.025,224.333,-493.69,0,0
153178.65,237.877,-508.282,0,0
154480,239.971,-520.093,0,0
155782,238.404,-525.603,0,0
157084,234.865,-528.124,0,0
158385,231.127,-526.326,0,0
159687,226.982,-520.855,0,0
160988,228.455,-512.874,0,0
162290,236.577,-509.069,0,0
163592,235.758,-518.441,0,0
164893,221.154,-519.084,0,0
166195,205.068,-506.793,0,0
167497,196.981,-487.869,0,0
168798,192.238,-466.404,0,0
170100,194.517,-444.076,0,0
171401.375,197.384,-422.477,0,0
172703.0,205.022,-398.838,0,0
174004.625,216.897,-375.07,0,0
175306.25,234.371,-351.431,0,0
176607.875,256.375,-333.516,0,0
177909.5,284.436,-321.774,0,0
179211.125,304.672,-318.172,0,0
180512.75,317.528,-318.832,0,0
181814.375,321.621,-305.726,0,0
183116.0,335.544,-283.405,0,0
184417.625,358.34,-259.959,0,0
185719.25,392.931,-237.631,0,0
187021,433.055,-228.933,0,0
188322,473.291,-220.785,0,0
189624,513.001,-217.362,0,0
190926,556.776,-212.346,0,0
192227,615.886,-213.082,0,0
193529,684.77,-229.933,0,0
194831,748.583,-272.047,0,0
196132,802.465,-327.091,0,0
197434,844.514,-391.653,0,0
198735,873.856,-465.163,0,0
200037,886.177,-550.011,0,0
201339,880.131,-634.488,0,0
202640.35,848.373,-717.221,0,0
203941.975,795.862,-776.755,0,0
205243.6,746.89,-815.632,0,0
206545.225,694.167,-847.536,0,0
207846.85,645.277,-863.974,0,0
209148.475,605.538,-873.144,0,0
210450.1,565.76,-887.744,0,0
211751.725,518.321,-893.468,0,0
213053.35,476.51,-884.158,0,0
214354.975,443.497,-870.481,0,0
215656.6,417.898,-856.242,0,0
216958.225,396.618,-840.633,0,0
218259.85,381.242,-824.91,0,0
219561,370.78,-810.947,0,0
220863,362.736,-800.332,0,0
222165,356.734,-789.572,0,0
223466,355.066,-782.775,0,0
224768,352.067,-780.313,0,0
226070,348.4,-778.444,0,0
227371,346.296,-778.5,0,0
228673,343.621,-782.24,0,0
229974,337.793,-790.239,0,0
231276,325.955,-798.567,0,0
232578,310.04,-803.193,0,0
233879,293.43,-804.609,0,0
235180.95,277.33,-804.106,0,0
236482.575,260.175,-801.591,0,0
237784.2,243.272,-796.682,0,0
239085.825,227.573,-788.963,0,0
240387.45,213.517,-779.728,0,0
241689.075,201.755,-769.148,0,0
242990.7,192.851,-758.815,0,0
244292.325,185.953,-750.494,0,0
245593.95,177.871,-744.713,0,0
246895.575,166.724,-739.753,0,0
248197.2,152.641,-730.283,0,0
249498.825,140.377,-717.203,0,0
250800,130.776,-701.431,0,0
252102,124.756,-684.677,0,0
253404,121.642,-668.26,0,0
254705,120.433,-652.556,0,0
256007,121.266,-637.157,0,0
257309,124.67,-622.601,0,0
258610,130.325,-610.049,0,0
259912,136.895,-599.339,0,0
261213,145.062,-590.62,0,0
262515,153.89,-584.823,0,0
263817,162.238,-581.482,0,0
265118,169.927,-581.386,0,0
266420,174.013,-582.682,0,0
267721.55,177.096,-582.957,0,0
269023.175,178.527,-584.483,0,0
270324.8,176.915,-582.84,0,0
271626.425,178.778,-577.517,0,0
272928.05,184.382,-573.306,0,0
274229.675,194.225,-570.544,0,0
275531.3,207.979,-576.536,0,0
276832.925,215.672,-592.485,0,0
278134.55,211.502,-609.835,0,0
279436.175,201.114,-621.005,0,0
280737.8,189.611,-628.059,0,0
282039.425,176.416,-632.681,0,0
283341,160.785,-632.907,0,0
284643,148.727,-627.128,0,0
285944,137.086,-623.308,0,0
287246,123.812,-613.966,0,0
288548,114.373,-597.652,0,0
289849,115.272,-577.916,0,0
291151,127.467,-564.457,0,0
292452,141.092,-563.498,0,0
293754,148.461,-570.817,0,0
295056,145.593,-575.558,0,0
296357,149.317,-575.657,0,0
297659,149.513,-587.026,0,0
298960.525,139.345,-593.363,0,0
300262.15,130.039,-593.989,0,0
301563.775,121.449,-591.822,0,0
302865.4,116.49,-588.037,0,0
304167.025,112.609,-587.766,0,0
305468.65,105.541,-588.09,0,0
306770.275,96.4709,-585.702,0,0
308071.9,88.4738,-580.498,0,0
309373.525,82.1183,-574.585,0,0
310675.15,76.6528,-568.226,0,0
311976.775,72.113,-561.453,0,0
313278.4,68.7733,-554.808,0,0
314580,65.8395,-548.566,0,0
315882,63.1767,-542.325,0,0
317183,60.9678,-535.842,0,0
318485,59.6833,-529.495,0,0
319787,58.774,-523.811,0,0
321088,57.6992,-518.297,0,0
322390,56.803,-512.745,0,0
323691,55.9971,-506.949,0,0
324993,55.8902,-500.268,0,0
326295,57.9658,-493.948,0,0
327596,61.1786,-489.884,0,0
328898,63.3797,-487.498,0,0
330200,65.0387,-485.646,0,0
331501.125,66.0047,-484.763,0,0
332802.75,65.4601,-484.416,0,0
334104.375,63.3574,-483.285,0,0
335406.0,61.0755,-480.843,0,0
336707.625,58.9485,-477.595,0,0
338009.25,57.0655,-473.817,0,0
339310.875,55.8556,-469.79,0,0
340612.5,54.8914,-465.596,0,0
341914.125,54.2738,-461.356,0,0
343215.75,54.0127,-456.983,0,0
344517.375,54.241,-452.54,0,0
345819.0,54.9496,-448.283,0,0
347121,56.0297,-444.353,0,0
348422,57.4327,-440.779,0,0
349724,59.1544,-437.54,0,0
351025,61.038,-435.096,0,0
352327,62.3732,-433.152,0,0
353629,63.467,-431.055,0,0
354930,64.6736,-429,0,0
356232,66.0137,-427.113,0,0
357534,67.3878,-425.431,0,0
358835,69.1149,-424.083,0,0
360137,70.8121,-423.745,0,0
361438,71.5886,-424.025,0,0
362740.1,71.5296,-424.22,0,0
364041.725,70.9958,-424.149,0,0
365343.35,70.0299,-423.673,0,0
366644.975,69.0429,-422.657,0,0
367946.6,68.4905,-421.249,0,0
369248.225,68.4172,-420.26,0,0
370549.85,67.8849,-420.096,0,0
371851.475,66.529,-419.373,0,0
373153.1,65.4144,-418.487,0,0
374454.725,64.1163,-417.689,0,0
375756.35,62.4542,-416.691,0,0
377057.975,60.7125,-415.247,0,0
378359.6,59.3859,-414.167,0,0
379661,56.4323,-413.033,0,0
380963,53.9166,-409.462,0,0
382264,53.7459,-406.624,0,0
383566,52.6103,-405.292,0,0
384868,50.6229,-403.313,0,0
386169,48.7139,-400.562,0,0
387471,47.0208,-397.462,0,0
388773,45.7932,-393.928,0,0
390074,45.3382,-390.32,0,0
391376,45.7227,-387.516,0,0
392677,45.2028,-385.821,0,0
393979,43.5907,-383.529,0,0
395280.7,41.9312,-379.987,0,0
396582.325,41.2009,-375.895,0,0
397883.95,41.2144,-371.876,0,0
399185.575,41.7255,-368.151,0,0
400006.6,42.1814,-366.019,0,0