File: Accelerated corrosion test data/2025-10-16_06-00-08/sample_7.csv
Frequency (Hz),Impedance (ohms),Phase (Radians),Temperature (C),Humidity (%)
10000.0,273.954,-12102.1,0,0
11301.625,247.385,-10706.1,0,0
12603.25,258.037,-9654.79,0,0
13904.875,209.447,-8759.45,0,0
15206.5,195.765,-8021.65,0,0
16508.125,171.95,-7379.78,0,0
17809.75,169.889,-6823.86,0,0
19111.375,181.327,-6383.11,0,0
20413.0,169.764,-5987.17,0,0
21714.625,157.902,-5646.45,0,0
23016.25,130.633,-5323.17,0,0
24317.875,122.839,-5029.72,0,0
25619.5,118.654,-4765.33,0,0
26921.1,122.771,-4520.53,0,0
28222.7,178.163,-4306.5,0,0
29524.4,140.215,-4178.47,0,0
30826,132.634,-3993.17,0,0
32127.6,117.511,-3845.25,0,0
33429.2,101.497,-3694.67,0,0
34730.9,92.5259,-3549.38,0,0
36032.5,88.6857,-3415.64,0,0
37334.1,86.3627,-3291.86,0,0
38635.7,87.1269,-3174.35,0,0
39937.4,98.9848,-3074.9,0,0
41239,87.0706,-2987.72,0,0
42540.6,80.1218,-2891.51,0,0
43842.225,78.9874,-2802.64,0,0
45143.85,80.6714,-2724.7,0,0
46445.475,77.4971,-2652.14,0,0
47747.1,70.8565,-2575.78,0,0
49048.725,68.1397,-2505.43,0,0
50350.35,66.2144,-2438.16,0,0
51651.975,64.6014,-2374.57,0,0
52953.6,63.7971,-2313.97,0,0
54255.225,62.382,-2257.28,0,0
55556.85,61.0632,-2202.46,0,0
56858.475,60.2504,-2149.96,0,0
58160.1,59.3874,-2099.59,0,0
59461.7,59.6496,-2052.04,0,0
60763.3,59.0105,-2008.12,0,0
62065,56.9857,-1964.69,0,0
63366.6,55.7398,-1921.92,0,0
64668.2,55.0699,-1881.29,0,0
65969.8,55.0163,-1842.74,0,0
67271.5,53.2566,-1805.96,0,0
68573.1,52.0906,-1769.23,0,0
69874.7,51.4634,-1733.72,0,0
71176.3,51.3417,-1700.17,0,0
72478,50.2884,-1667.9,0,0
73779.6,49.476,-1636.06,0,0
75081.2,48.9541,-1605.19,0,0
76382.825,48.4257,-1575.46,0,0
77684.45,48.1158,-1546.55,0,0
78986.075,47.8132,-1518.59,0,0
80287.7,47.6487,-1491.48,0,0
81589.325,47.2341,-1465.21,0,0
82890.95,47.0533,-1439.57,0,0
84192.575,46.9705,-1414.39,0,0
85494.2,47.2457,-1390.3,0,0
86795.825,47.358,-1366.86,0,0
88097.45,47.4046,-1344.23,0,0
89399.075,46.9803,-1321.97,0,0
90700.7,47.1581,-1299.61,0,0
92002.3,47.5502,-1277.94,0,0
93303.9,48.1294,-1256.81,0,0
94605.6,50.0573,-1236.94,0,0
95907.2,49.9998,-1219.03,0,0
97208.8,49.4511,-1199.46,0,0
98510.4,50.2394,-1180.07,0,0
99812.1,49.7593,-1161.46,0,0
101114,51.3505,-1142.33,0,0
102415,52.9782,-1124.16,0,0
103717,55.7074,-1107.47,0,0
105019,56.7277,-1092.43,0,0
106320.175,56.106,-1076.3,0,0
107621.8,57.1406,-1059.92,0,0
108923.425,58.2013,-1043.64,0,0
110225.05,58.8371,-1027,0,0
111526.675,61.8821,-1010.12,0,0
112828.3,66.3758,-993.759,0,0
114129.925,71.7367,-979.738,0,0
115431.55,77.8981,-967.145,0,0
116733.175,86.0349,-958.439,0,0
118034.8,89.8201,-953.533,0,0
119336.425,92.5984,-951.216,0,0
120638.05,85.6418,-951.286,0,0
121939.675,74.8774,-940.744,0,0
123241,67.6488,-928.012,0,0
124543,63.0479,-913.118,0,0
125845,59.0902,-899.316,0,0
127146,55.6703,-884.56,0,0
128448,53.952,-869.627,0,0
129749,52.4447,-855.116,0,0
131051,51.2136,-840.679,0,0
132353,50.4048,-825.337,0,0
133654,50.8383,-809.733,0,0
134956,53.5416,-794.942,0,0
136258,57.9826,-781.857,0,0
137559,58.6921,-774.263,0,0
138860.775,56.2539,-761.974,0,0
140162.4,56.376,-747.892,0,0
141464.025,56.3156,-734.519,0,0
142765.65,57.4499,-719.989,0,0
144067.275,60.2359,-706.486,0,0
145368.9,61.9041,-694.257,0,0
146670.525,63.0297,-681.174,0,0
147972.15,64.5134,-667.838,0,0
149273.775,65.2709,-654.868,0,0
150575.4,65.5947,-639.245,0,0
151877.025,67.6585,-621.838,0,0
153178.65,71.987,-603.794,0,0
154480,78.001,-585.544,0,0
155782,86.4948,-567.248,0,0
157084,97.5875,-549.879,0,0
158385,111.219,-535.653,0,0
159687,121.854,-526.38,0,0
160988,126.15,-512.897,0,0
162290,134.352,-489.052,0,0
163592,152.428,-463.862,0,0
164893,179.204,-443.038,0,0
166195,208.835,-421.762,0,0
167497,256.187,-404.24,0,0
168798,316.837,-406.646,0,0
170100,373.887,-438.865,0,0
171401.375,413.029,-493.146,0,0
172703.0,427.891,-559.548,0,0
174004.625,398.673,-625.339,0,0
175306.25,347.334,-642.756,0,0
176607.875,323.574,-631.495,0,0
177909.5,330.167,-628.932,0,0
179211.125,333.619,-665.082,0,0
180512.75,300.812,-687.872,0,0
181814.375,263.069,-702.085,0,0
183116.0,218.571,-694.55,0,0
184417.625,188.27,-672.465,0,0
185719.25,168.479,-649.6,0,0
187021,153.303,-622.488,0,0
188322,149.096,-597.022,0,0
189624,143.436,-579.282,0,0
190926,137.168,-556.847,0,0
192227,136.042,-532.743,0,0
193529,137.802,-507.892,0,0
194831,143.445,-483.465,0,0
196132,154.344,-461.992,0,0
197434,166.123,-443.714,0,0
198735,175.129,-427.482,0,0
200037,184.317,-407.358,0,0
201339,198.221,-384.465,0,0
202640.35,218.552,-359.389,0,0
203941.975,246.317,-338.028,0,0
205243.6,280.564,-319.008,0,0
206545.225,325.673,-312.392,0,0
207846.85,361.274,-318.107,0,0
209148.475,397.794,-314.227,0,0
210450.1,456.292,-324.295,0,0
211751.725,503.847,-369.842,0,0
213053.35,527.068,-421.319,0,0
214354.975,533.051,-467.356,0,0
215656.6,529.561,-509.902,0,0
216958.225,526.347,-548.643,0,0
218259.85,503.951,-588.802,0,0
219561,469.165,-616.47,0,0
220863,433.245,-618.752,0,0
222165,412.253,-608.679,0,0
223466,406.034,-600.213,0,0
224768,402.624,-597.235,0,0
226070,404.654,-589.59,0,0
227371,415.738,-592.769,0,0
228673,428.277,-604.481,0,0
229974,433.109,-626.1,0,0
231276,431.794,-655.287,0,0
232578,419.701,-683.173,0,0
233879,392.955,-713.606,0,0
235180.95,349.592,-726.245,0,0
236482.575,314.084,-715.644,0,0
237784.2,290.13,-706.26,0,0
239085.825,266.045,-688.524,0,0
240387.45,261.63,-667.895,0,0
241689.075,254.944,-663.282,0,0
242990.7,240.062,-652.965,0,0
244292.325,231.663,-634.08,0,0
245593.95,235.118,-619.801,0,0
246895.575,234.386,-612.487,0,0
248197.2,231.928,-602.21,0,0
249498.825,232.852,-590.179,0,0
250800,237.986,-578.21,0,0
252102,247.777,-569.386,0,0
253404,262.645,-567.359,0,0
254705,273.004,-576.272,0,0
256007,273.893,-587.447,0,0
257309,268.302,-594.58,0,0
258610,261.598,-595.627,0,0
259912,257.525,-596.204,0,0
261213,251.301,-593.556,0,0
262515,249.835,-586.585,0,0
263817,256.403,-584.028,0,0
265118,260.007,-589.96,0,0
266420,257.503,-594.02,0,0
267721.55,256.539,-597.783,0,0
269023.175,252.171,-600.941,0,0
270324.8,250.927,-599.549,0,0
271626.425,257.743,-601.792,0,0
272928.05,266.227,-621.352,0,0
274229.675,251.807,-650.466,0,0
275531.3,219.064,-666.712,0,0
276832.925,181.895,-661.459,0,0
278134.55,155.06,-640.922,0,0
279436.175,142.664,-617.24,0,0
280737.8,138.742,-596.707,0,0
282039.425,138.29,-583.18,0,0
283341,134.909,-569.752,0,0
284643,135.67,-553.325,0,0
285944,141.68,-540.389,0,0
287246,148.3,-532.69,0,0
288548,151.259,-527.13,0,0
289849,153.8,-518.919,0,0
291151,159.128,-509.734,0,0
292452,166.302,-503.176,0,0
293754,174.325,-497.45,0,0
295056,183.022,-492.878,0,0
296357,193.558,-489.489,0,0
297659,206.383,-488.436,0,0
298960.525,219.792,-491.794,0,0
300262.15,233.522,-498.157,0,0
301563.775,248.33,-509.734,0,0
302865.4,261.284,-532.812,0,0
304167.025,257.353,-562.626,0,0
305468.65,242.225,-583.93,0,0
306770.275,222.41,-597.959,0,0
308071.9,201.275,-603.936,0,0
309373.525,181.179,-603.396,0,0
310675.15,165.471,-597.609,0,0
311976.775,153.861,-591.462,0,0
313278.4,143.64,-585.291,0,0
314580,134.219,-577.657,0,0
315882,128.072,-568.519,0,0
317183,124.786,-560.978,0,0
318485,122.104,-554.976,0,0
319787,119.839,-549.688,0,0
321088,117.874,-545.584,0,0
322390,115.447,-541.883,0,0
323691,112.961,-538.496,0,0
324993,110.122,-534.889,0,0
326295,108.235,-531.318,0,0
327596,106.069,-528.986,0,0
328898,102.985,-526.707,0,0
330200,99.5786,-524.086,0,0
331501.125,96.0247,-521.552,0,0
332802.75,91.6171,-518.981,0,0
334104.375,86.5113,-515.375,0,0
335406.0,81.7234,-510.553,0,0
336707.625,77.1517,-505.089,0,0
338009.25,73.3938,-498.669,0,0
339310.875,70.43,-492.106,0,0
340612.5,68.1902,-485.374,0,0
341914.125,66.6852,-478.276,0,0
343215.75,66.278,-471.4,0,0
344517.375,66.8039,-465.103,0,0
345819.0,67.7793,-459.997,0,0
347121,68.236,-455.965,0,0
348422,67.7011,-451.996,0,0
349724,66.7112,-447.017,0,0
351025,66.1545,-441.424,0,0
352327,66.6966,-434.997,0,0
353629,68.7935,-429.382,0,0
354930,71.3755,-425.047,0,0
356232,73.8378,-422.251,0,0
357534,74.445,-420.306,0,0
358835,73.5703,-417.081,0,0
360137,73.2188,-412.056,0,0
361438,74.3363,-406.525,0,0
362740.1,76.7473,-401.508,0,0
364041.725,79.5994,-397.184,0,0
365343.35,83.0681,-393.548,0,0
366644.975,86.6363,-391.421,0,0
367946.6,89.3876,-389.711,0,0
369248.225,91.9404,-388.527,0,0
370549.85,93.8341,-388.399,0,0
371851.475,93.4509,-387.963,0,0
373153.1,92.7303,-385.309,0,0
374454.725,93.3725,-381.812,0,0
375756.35,94.8525,-378.785,0,0
377057.975,96.0801,-376.373,0,0
378359.6,97.0099,-373.138,0,0
379661,98.9924,-369.619,0,0
380963,101.487,-366.76,0,0
382264,103.863,-364.037,0,0
383566,106.676,-361.374,0,0
384868,109.731,-359.128,0,0
386169,112.499,-357.375,0,0
387471,115.238,-355.29,0,0
388773,118.078,-352.605,0,0
390074,122.857,-349.906,0,0
391376,127.954,-349.117,0,0
392677,132.391,-348.894,0,0
393979,136.502,-348.687,0,0
395280.7,141.064,-347.789,0,0
396582.325,147.538,-347.039,0,0
397883.95,156.175,-348.622,0,0
399185.575,165.294,-354.199,0,0
400006.6,170.112,-360.35,0,0