File: Accelerated corrosion test data/2025-10-16_06-00-08/sample_8.csv
Frequency (Hz),Impedance (ohms),Phase (Radians),Temperature (C),Humidity (%)
10000.0,310.526,-10972.5,0,0
11301.625,275.123,-9724.02,0,0
12603.25,252.692,-8732.25,0,0
13904.875,224.277,-7931.31,0,0
15206.5,204.093,-7257.04,0,0
16508.125,188.332,-6690.89,0,0
17809.75,174.693,-6204.51,0,0
19111.375,167.073,-5781.73,0,0
20413.0,159.969,-5419.88,0,0
21714.625,149.449,-5099.76,0,0
23016.25,143.595,-4817.02,0,0
24317.875,131.987,-4560.28,0,0
25619.5,125.153,-4327.46,0,0
26921.1,120.231,-4116.63,0,0
28222.7,117.399,-3926.63,0,0
29524.4,113.521,-3753.63,0,0
30826,109.149,-3596.16,0,0
32127.6,105.374,-3448.42,0,0
33429.2,105.056,-3311.38,0,0
34730.9,105.977,-3186.76,0,0
36032.5,108.911,-3075.73,0,0
37334.1,105.608,-2976.06,0,0
38635.7,96.0849,-2879.51,0,0
39937.4,88.285,-2783.07,0,0
41239,85.4378,-2692.25,0,0
42540.6,82.357,-2607.29,0,0
43842.225,81.6028,-2529.74,0,0
45143.85,77.6376,-2455.28,0,0
46445.475,74.6587,-2384.22,0,0
47747.1,72.8952,-2316.82,0,0
49048.725,70.804,-2253.35,0,0
50350.35,68.7894,-2192.38,0,0
51651.975,67.8595,-2134.29,0,0
52953.6,67.4038,-2079.63,0,0
54255.225,66.4539,-2029.69,0,0
55556.85,63.4072,-1980.22,0,0
56858.475,61.1884,-1931.32,0,0
58160.1,60.1859,-1884.79,0,0
59461.7,59.6056,-1841.05,0,0
60763.3,58.2375,-1798.24,0,0
62065,57.8447,-1757.34,0,0
63366.6,58.0719,-1717.65,0,0
64668.2,58.6876,-1681.17,0,0
65969.8,57.9566,-1646.33,0,0
67271.5,55.9022,-1611.86,0,0
68573.1,54.938,-1577.83,0,0
69874.7,54.7307,-1544.82,0,0
71176.3,54.6663,-1513.14,0,0
72478,54.829,-1483.33,0,0
73779.6,54.0942,-1454.34,0,0
75081.2,53.2533,-1425.79,0,0
76382.825,53.0197,-1397.87,0,0
77684.45,52.6719,-1371.12,0,0
78986.075,52.0215,-1344.75,0,0
80287.7,51.6512,-1318.7,0,0
81589.325,51.6384,-1292.87,0,0
82890.95,52.5172,-1267.93,0,0
84192.575,53.7692,-1244.09,0,0
85494.2,54.7069,-1222.36,0,0
86795.825,54.0935,-1199.34,0,0
88097.45,54.924,-1176.77,0,0
89399.075,55.6061,-1154.41,0,0
90700.7,57.4787,-1131.84,0,0
92002.3,61.6162,-1110.74,0,0
93303.9,65.371,-1092.8,0,0
94605.6,65.3607,-1074.99,0,0
95907.2,67.2215,-1055.2,0,0
97208.8,70.8357,-1035.83,0,0
98510.4,75.8119,-1018.33,0,0
99812.1,80.7182,-1003.85,0,0
101114,84.9106,-990.664,0,0
102415,87.059,-979.441,0,0
103717,86.2249,-968.026,0,0
105019,85.4065,-954.768,0,0
106320.175,84.489,-940.289,0,0
107621.8,84.8206,-926.562,0,0
108923.425,84.2625,-912.235,0,0
110225.05,85.473,-898.099,0,0
111526.675,86.1606,-885.4,0,0
112828.3,86.8746,-872.975,0,0
114129.925,86.8216,-861.235,0,0
115431.55,86.4717,-849.049,0,0
116733.175,84.7354,-836.993,0,0
118034.8,84.346,-823.629,0,0
119336.425,83.8066,-811.203,0,0
120638.05,82.457,-798.389,0,0
121939.675,81.7217,-784.977,0,0
123241,81.1632,-771.798,0,0
124543,80.6205,-757.959,0,0
125845,80.577,-744.247,0,0
127146,81.2223,-730.146,0,0
128448,82.0836,-716.555,0,0
129749,83.1689,-703.258,0,0
131051,84.3857,-689.533,0,0
132353,85.9167,-676.952,0,0
133654,86.5229,-663.918,0,0
134956,87.7092,-649.756,0,0
136258,90.7757,-636.425,0,0
137559,91.3661,-625.112,0,0
138860.775,90.4675,-610.02,0,0
140162.4,92.4674,-593.874,0,0
141464.025,95.2589,-578.053,0,0
142765.65,98.1177,-561.41,0,0
144067.275,102.752,-543.877,0,0
145368.9,109.086,-525.413,0,0
146670.525,118.135,-507.752,0,0
147972.15,128.283,-491.877,0,0
149273.775,139.791,-472.876,0,0
150575.4,158.197,-455.588,0,0
151877.025,183.792,-447.172,0,0
153178.65,200.772,-450.423,0,0
154480,209.167,-453.254,0,0
155782,219.372,-446.835,0,0
157084,225.851,-456.814,0,0
158385,220.355,-448.006,0,0
159687,231.482,-439.388,0,0
160988,230.771,-438.436,0,0
162290,235.6,-423.323,0,0
163592,249.166,-416.617,0,0
164893,258.712,-415.328,0,0
166195,262.387,-421.129,0,0
167497,252.09,-416.919,0,0
168798,248.356,-402.987,0,0
170100,248.837,-385.095,0,0
171401.375,250.986,-367.581,0,0
172703.0,260.505,-343.045,0,0
174004.625,276.719,-326.909,0,0
175306.25,284.339,-315.114,0,0
176607.875,293.523,-288.457,0,0
177909.5,313.069,-262.817,0,0
179211.125,341.561,-236.162,0,0
180512.75,381.55,-214.663,0,0
181814.375,427.203,-206.695,0,0
183116.0,470.649,-212.73,0,0
184417.625,500.101,-222.977,0,0
185719.25,528.987,-225.903,0,0
187021,562.237,-229.879,0,0
188322,597.232,-234.082,0,0
189624,633.646,-248.811,0,0
190926,667.908,-253.493,0,0
192227,716.912,-271.1,0,0
193529,763.205,-284.094,0,0
194831,837.569,-317.9,0,0
196132,904.162,-389.028,0,0
197434,942.643,-490.892,0,0
198735,942.577,-598.369,0,0
200037,913.006,-697.999,0,0
201339,853.632,-774.583,0,0
202640.35,779.486,-835.457,0,0
203941.975,701.429,-847.749,0,0
205243.6,644.64,-849.597,0,0
206545.225,589.416,-836.513,0,0
207846.85,566.887,-807.326,0,0
209148.475,558.894,-799.764,0,0
210450.1,549.98,-793.767,0,0
211751.725,545.695,-795.707,0,0
213053.35,542.034,-803.917,0,0
214354.975,533.622,-818.293,0,0
215656.6,518.987,-834.851,0,0
216958.225,496.972,-847.968,0,0
218259.85,474.011,-856.878,0,0
219561,448.67,-862.073,0,0
220863,422.064,-862.984,0,0
222165,398.116,-854.398,0,0
223466,383.258,-844.394,0,0
224768,375.259,-837.797,0,0
226070,369.525,-839.969,0,0
227371,356.285,-847.142,0,0
228673,336.962,-850.813,0,0
229974,317.843,-851.618,0,0
231276,295.138,-851.533,0,0
232578,271.507,-845.721,0,0
233879,248.987,-835.921,0,0
235180.95,227.922,-821.341,0,0
236482.575,212.269,-802.78,0,0
237784.2,202.241,-784.251,0,0
239085.825,196.803,-766.582,0,0
240387.45,195.626,-754.321,0,0
241689.075,191.963,-746.714,0,0
242990.7,184.298,-738.055,0,0
244292.325,177.863,-726.158,0,0
245593.95,174.054,-714.747,0,0
246895.575,171.447,-703.788,0,0
248197.2,168.353,-694.511,0,0
249498.825,165.01,-683.437,0,0
250800,163.893,-671.254,0,0
252102,166.858,-659.499,0,0
253404,171.774,-653.349,0,0
254705,172.237,-649.615,0,0
256007,170.721,-644.123,0,0
257309,169.29,-636.175,0,0
258610,170.722,-626.612,0,0
259912,175.149,-618.201,0,0
261213,180.598,-612.524,0,0
262515,186.38,-608.717,0,0
263817,190.051,-606.024,0,0
265118,193.314,-600.733,0,0
266420,201.468,-593.163,0,0
267721.55,218.019,-589.241,0,0
269023.175,238.294,-597.499,0,0
270324.8,252.388,-617.509,0,0
271626.425,255.369,-644.916,0,0
272928.05,243.935,-672.391,0,0
274229.675,219.011,-691.532,0,0
275531.3,190.257,-694.963,0,0
276832.925,168.204,-688.064,0,0
278134.55,152.574,-678.314,0,0
279436.175,140.661,-667.325,0,0
280737.8,133.848,-655.069,0,0
282039.425,131.466,-645.476,0,0
283341,129.932,-639.703,0,0
284643,126.508,-634.432,0,0
285944,125.187,-627.376,0,0
287246,128.124,-623.882,0,0
288548,128.824,-628.064,0,0
289849,121.183,-632.434,0,0
291151,110.296,-631.141,0,0
292452,100.869,-626.642,0,0
293754,92.6599,-620.229,0,0
295056,85.6759,-612.681,0,0
296357,80.6298,-604.331,0,0
297659,76.7237,-596.418,0,0
298960.525,73.5872,-588.228,0,0
300262.15,71.5677,-579.902,0,0
301563.775,71.2048,-571.705,0,0
302865.4,72.2031,-564.84,0,0
304167.025,73.6341,-559.356,0,0
305468.65,75.046,-555.058,0,0
306770.275,76.3417,-551.901,0,0
308071.9,77.0671,-549.562,0,0
309373.525,76.8489,-548.503,0,0
310675.15,74.9009,-546.758,0,0
311976.775,72.9922,-544.308,0,0
313278.4,70.8927,-541.877,0,0
314580,68.2495,-539.017,0,0
315882,65.6633,-535.314,0,0
317183,63.8202,-531.029,0,0
318485,62.6305,-527.061,0,0
319787,61.9218,-523.325,0,0
321088,61.3612,-520.68,0,0
322390,59.928,-518.337,0,0
323691,58.0669,-515.97,0,0
324993,55.4016,-513.224,0,0
326295,52.7574,-509.582,0,0
327596,50.5486,-505.358,0,0
328898,48.7215,-501.195,0,0
330200,47.1636,-496.925,0,0
331501.125,45.8576,-492.504,0,0
332802.75,44.837,-488.073,0,0
334104.375,44.1896,-483.698,0,0
335406.0,44.0206,-479.511,0,0
336707.625,43.9169,-475.884,0,0
338009.25,43.6674,-472.509,0,0
339310.875,43.3011,-469.373,0,0
340612.5,42.6486,-466.213,0,0
341914.125,41.6652,-462.892,0,0
343215.75,40.8295,-459.122,0,0
344517.375,40.2199,-455.265,0,0
345819.0,39.869,-451.312,0,0
347121,39.8465,-447.235,0,0
348422,40.2089,-443.376,0,0
349724,40.6908,-439.713,0,0
351025,41.4137,-436.293,0,0
352327,42.2654,-433.221,0,0
353629,43.0754,-430.472,0,0
354930,43.655,-427.974,0,0
356232,44.1399,-425.515,0,0
357534,44.4228,-423.144,0,0
358835,44.6081,-420.697,0,0
360137,44.8598,-418.186,0,0
361438,45.1241,-415.74,0,0
362740.1,45.3666,-413.306,0,0
364041.725,45.6573,-410.902,0,0
365343.35,45.998,-408.45,0,0
366644.975,46.439,-406.169,0,0
367946.6,46.6887,-403.924,0,0
369248.225,47.1062,-401.447,0,0
370549.85,48.0323,-399.14,0,0
371851.475,48.9972,-397.675,0,0
373153.1,49.3716,-396.561,0,0
374454.725,49.2229,-395.313,0,0
375756.35,48.731,-393.598,0,0
377057.975,48.7262,-391.519,0,0
378359.6,48.8972,-390.114,0,0
379661,48.1829,-388.624,0,0
380963,48.0485,-386.231,0,0
382264,48.4491,-384.928,0,0
383566,47.6836,-384.04,0,0
384868,46.2527,-382.441,0,0
386169,44.8971,-380.133,0,0
387471,43.79,-377.318,0,0
388773,43.1252,-374.22,0,0
390074,43.0421,-371.251,0,0
391376,43.0422,-368.575,0,0
392677,42.9328,-366.045,0,0
393979,42.7958,-363.364,0,0
395280.7,42.7426,-360.549,0,0
396582.325,43.0022,-357.71,0,0
397883.95,43.3853,-355.092,0,0
399185.575,43.7387,-352.577,0,0
400006.6,43.8877,-351.002,0,0