File: Accelerated corrosion test data/2025-10-16_06-00-08/sample_2.csv
Frequency (Hz),Impedance (ohms),Phase (Radians),Temperature (C),Humidity (%)
10000.0,229.682,-11451.9,0,0
11301.625,204.02,-10142.9,0,0
12603.25,183.738,-9105.62,0,0
13904.875,187.096,-8256.26,0,0
15206.5,165.238,-7566.24,0,0
16508.125,143.258,-6970.85,0,0
17809.75,133.024,-6461.87,0,0
19111.375,128.525,-6021.2,0,0
20413.0,118.109,-5637.71,0,0
21714.625,127.572,-5307.71,0,0
23016.25,112.577,-5011.09,0,0
24317.875,102.771,-4745.08,0,0
25619.5,97.5951,-4500.89,0,0
26921.1,94.6246,-4281.94,0,0
28222.7,89.8637,-4082.59,0,0
29524.4,93.2501,-3898.31,0,0
30826,87.7447,-3744.17,0,0
32127.6,81.5951,-3589.14,0,0
33429.2,79.6955,-3450.93,0,0
34730.9,75.5219,-3319.59,0,0
36032.5,72.9052,-3197.96,0,0
37334.1,70.7619,-3084.28,0,0
38635.7,68.7579,-2979,0,0
39937.4,66.7657,-2880.1,0,0
41239,65.4769,-2786.97,0,0
42540.6,64.3123,-2700.48,0,0
43842.225,63.0228,-2618.1,0,0
45143.85,61.8546,-2539.96,0,0
46445.475,61.1329,-2467.73,0,0
47747.1,60.3328,-2398.13,0,0
49048.725,60.5231,-2334.19,0,0
50350.35,57.8511,-2271.99,0,0
51651.975,56.6245,-2212.72,0,0
52953.6,54.9682,-2155.31,0,0
54255.225,54.3478,-2100.6,0,0
55556.85,53.8779,-2048.36,0,0
56858.475,53.8414,-1998.46,0,0
58160.1,54.0207,-1951.15,0,0
59461.7,54.5686,-1904.96,0,0
60763.3,56.2414,-1862.44,0,0
62065,58.9044,-1823.97,0,0
63366.6,55.4272,-1787.22,0,0
64668.2,53.0672,-1748.84,0,0
65969.8,50.7442,-1709.73,0,0
67271.5,51.2198,-1672.43,0,0
68573.1,53.3487,-1638.32,0,0
69874.7,55.8812,-1607.99,0,0
71176.3,52.5201,-1579.89,0,0
72478,47.9508,-1549.31,0,0
73779.6,45.1865,-1516.42,0,0
75081.2,45.1753,-1483.94,0,0
76382.825,46.8973,-1453.52,0,0
77684.45,49.6005,-1425.18,0,0
78986.075,52.9956,-1400.85,0,0
80287.7,51.8011,-1379.4,0,0
81589.325,49.1989,-1354.24,0,0
82890.95,48.0047,-1328.5,0,0
84192.575,48.7404,-1303.66,0,0
85494.2,49.4813,-1280.12,0,0
86795.825,50.458,-1258.06,0,0
88097.45,51.0191,-1236.74,0,0
89399.075,51.2525,-1215.18,0,0
90700.7,51.3887,-1195.05,0,0
92002.3,52.9208,-1173.77,0,0
93303.9,55.3478,-1154.8,0,0
94605.6,55.3072,-1138.25,0,0
95907.2,54.1587,-1118.75,0,0
97208.8,57.792,-1101.37,0,0
98510.4,57.634,-1087.59,0,0
99812.1,53.4797,-1073.04,0,0
101114,50.6202,-1055.41,0,0
102415,46.8968,-1035.33,0,0
103717,46.0485,-1014.28,0,0
105019,49.3039,-993.911,0,0
106320.175,53.9818,-976.67,0,0
107621.8,57.7164,-964.74,0,0
108923.425,56.1384,-952.695,0,0
110225.05,52.9674,-937.567,0,0
111526.675,51.514,-919.682,0,0
112828.3,52.035,-902.107,0,0
114129.925,53.6699,-884.955,0,0
115431.55,56.3398,-868.294,0,0
116733.175,59.8028,-852.807,0,0
118034.8,63.893,-838.52,0,0
119336.425,67.7883,-826.503,0,0
120638.05,70.1249,-815.93,0,0
121939.675,69.7533,-804.966,0,0
123241,68.9692,-792.119,0,0
124543,68.4302,-778.505,0,0
125845,68.4682,-763.673,0,0
127146,69.834,-748.502,0,0
128448,72.8384,-733.907,0,0
129749,75.7928,-720.883,0,0
131051,78.5475,-708.072,0,0
132353,80.0196,-696.107,0,0
133654,81.1538,-682.485,0,0
134956,82.3782,-668.596,0,0
136258,84.5346,-653.485,0,0
137559,87.4513,-638.375,0,0
138860.775,90.6907,-623.437,0,0
140162.4,93.8745,-607.386,0,0
141464.025,99.2222,-588.681,0,0
142765.65,108.532,-571.115,0,0
144067.275,118.734,-555.748,0,0
145368.9,129.752,-540.482,0,0
146670.525,142.68,-525.999,0,0
147972.15,158.002,-511.778,0,0
149273.775,178.216,-498.626,0,0
150575.4,205.075,-494.184,0,0
151877.025,227.857,-504.009,0,0
153178.65,237.489,-518.625,0,0
154480,237.068,-530.015,0,0
155782,233.532,-533.511,0,0
157084,228.147,-534.259,0,0
158385,223.712,-527.426,0,0
159687,224.612,-521.397,0,0
160988,224.496,-516.082,0,0
162290,230.96,-510.902,0,0
163592,228.124,-517.294,0,0
164893,215.237,-514.988,0,0
166195,201.872,-502.106,0,0
167497,194.27,-482.805,0,0
168798,191.711,-460.723,0,0
170100,193.498,-438.6,0,0
171401.375,198.059,-416.414,0,0
172703.0,206.669,-392.985,0,0
174004.625,218.651,-369.242,0,0
175306.25,237.222,-345.151,0,0
176607.875,262.289,-327.686,0,0
177909.5,288.584,-315.798,0,0
179211.125,312.056,-315.085,0,0
180512.75,322.451,-314.913,0,0
181814.375,327.462,-300.491,0,0
183116.0,343.674,-280.155,0,0
184417.625,367.004,-256.932,0,0
185719.25,401.692,-237.41,0,0
187021,439.119,-225.642,0,0
188322,480.996,-216.663,0,0
189624,521.604,-215.386,0,0
190926,566.648,-210.147,0,0
192227,624.813,-208.635,0,0
193529,697.007,-223.029,0,0
194831,768.572,-268.116,0,0
196132,821.344,-329.945,0,0
197434,860.628,-396.183,0,0
198735,894.057,-474.682,0,0
200037,901.493,-560.065,0,0
201339,894.624,-647.928,0,0
202640.35,860.288,-727.264,0,0
203941.975,810.033,-790.913,0,0
205243.6,757.975,-839.003,0,0
206545.225,693.656,-868.803,0,0
207846.85,639.905,-878.057,0,0
209148.475,602.188,-882.572,0,0
210450.1,563.472,-896.677,0,0
211751.725,515.967,-900.697,0,0
213053.35,474.806,-890.009,0,0
214354.975,442.471,-875.888,0,0
215656.6,416.912,-860.695,0,0
216958.225,396.607,-844.157,0,0
218259.85,382.143,-828.429,0,0
219561,371.609,-813.886,0,0
220863,364.869,-802.166,0,0
222165,360.944,-792.014,0,0
223466,359.936,-787.153,0,0
224768,356.279,-785.391,0,0
226070,351.532,-783.63,0,0
227371,349.695,-782.629,0,0
228673,348.669,-787.313,0,0
229974,342.141,-797.264,0,0
231276,328.772,-805.69,0,0
232578,312.977,-810.496,0,0
233879,295.477,-812.275,0,0
235180.95,278.063,-810.858,0,0
236482.575,261.338,-807.825,0,0
237784.2,244.286,-802.885,0,0
239085.825,228.421,-795.145,0,0
240387.45,214.235,-785.831,0,0
241689.075,202.59,-775.834,0,0
242990.7,192.717,-765.493,0,0
244292.325,184.498,-756.955,0,0
245593.95,175.892,-749.851,0,0
246895.575,164.889,-743.541,0,0
248197.2,151.554,-733.363,0,0
249498.825,140.102,-719.962,0,0
250800,130.741,-704.518,0,0
252102,124.725,-687.158,0,0
253404,122.234,-670.837,0,0
254705,121.113,-655.355,0,0
256007,121.729,-639.559,0,0
257309,125.859,-624.716,0,0
258610,131.576,-612.352,0,0
259912,138.398,-601.395,0,0
261213,147.086,-592.737,0,0
262515,156.074,-587.042,0,0
263817,164.874,-584.068,0,0
265118,172.27,-583.595,0,0
266420,177.403,-584.487,0,0
267721.55,181.2,-585.752,0,0
269023.175,182.656,-587.354,0,0
270324.8,182.463,-586.335,0,0
271626.425,184.48,-582.778,0,0
272928.05,189.683,-579.566,0,0
274229.675,198.87,-578.787,0,0
275531.3,211.076,-585.229,0,0
276832.925,217.02,-602.044,0,0
278134.55,210.942,-618.078,0,0
279436.175,200.259,-628.755,0,0
280737.8,187.273,-635.049,0,0
282039.425,174.272,-637.732,0,0
283341,159.226,-637.083,0,0
284643,148.161,-631.558,0,0
285944,135.911,-627.963,0,0
287246,121.985,-617.196,0,0
288548,114.222,-600.501,0,0
289849,115.408,-581.311,0,0
291151,126.651,-567.774,0,0
292452,142.197,-565.797,0,0
293754,149.158,-575.215,0,0
295056,146.22,-579.848,0,0
296357,147.661,-579.916,0,0
297659,149.166,-589.45,0,0
298960.525,139.975,-596.567,0,0
300262.15,129.935,-597.754,0,0
301563.775,121.185,-594.628,0,0
302865.4,116.916,-591.07,0,0
304167.025,112.814,-590.905,0,0
305468.65,105.65,-591.064,0,0
306770.275,96.9438,-588.551,0,0
308071.9,88.9251,-583.636,0,0
309373.525,82.483,-577.386,0,0
310675.15,77.4884,-571.099,0,0
311976.775,73.0298,-564.809,0,0
313278.4,69.2193,-558.228,0,0
314580,66.2221,-551.729,0,0
315882,63.696,-545.404,0,0
317183,61.591,-538.936,0,0
318485,60.2919,-532.673,0,0
319787,59.2848,-526.998,0,0
321088,58.3267,-521.46,0,0
322390,57.3178,-515.875,0,0
323691,56.5588,-510.055,0,0
324993,56.5252,-503.438,0,0
326295,58.6153,-496.976,0,0
327596,62.031,-492.916,0,0
328898,64.307,-490.684,0,0
330200,65.9144,-488.995,0,0
331501.125,66.8447,-488.26,0,0
332802.75,66.1606,-488.071,0,0
334104.375,63.8381,-486.944,0,0
335406.0,61.2956,-484.249,0,0
336707.625,59.2594,-480.903,0,0
338009.25,57.5084,-477.109,0,0
339310.875,56.1773,-473.189,0,0
340612.5,55.1297,-468.885,0,0
341914.125,54.5541,-464.484,0,0
343215.75,54.3632,-460.126,0,0
344517.375,54.6111,-455.768,0,0
345819.0,55.3833,-451.469,0,0
347121,56.5052,-447.597,0,0
348422,57.8994,-444.097,0,0
349724,59.5184,-440.998,0,0
351025,61.2385,-438.446,0,0
352327,62.6352,-436.399,0,0
353629,63.7358,-434.427,0,0
354930,64.8005,-432.277,0,0
356232,66.1701,-430.301,0,0
357534,67.7326,-428.555,0,0
358835,69.5285,-427.52,0,0
360137,71.0077,-427.351,0,0
361438,71.6202,-427.628,0,0
362740.1,71.4315,-427.788,0,0
364041.725,70.7443,-427.628,0,0
365343.35,69.792,-427.08,0,0
366644.975,68.6437,-426.084,0,0
367946.6,67.7944,-424.432,0,0
369248.225,67.8037,-423.23,0,0
370549.85,67.3579,-422.977,0,0
371851.475,65.9847,-422.333,0,0
373153.1,64.7087,-421.262,0,0
374454.725,63.5629,-420.17,0,0
375756.35,62.044,-419.191,0,0
377057.975,60.4336,-417.872,0,0
378359.6,58.8965,-416.688,0,0
379661,56.143,-415.478,0,0
380963,53.5495,-411.876,0,0
382264,53.5823,-408.891,0,0
383566,52.6692,-407.7,0,0
384868,50.5716,-405.95,0,0
386169,48.3404,-403.218,0,0
387471,46.7212,-399.802,0,0
388773,45.6881,-396.362,0,0
390074,45.2389,-392.862,0,0
391376,45.3598,-390.047,0,0
392677,44.926,-388.182,0,0
393979,43.326,-385.863,0,0
395280.7,41.7416,-382.384,0,0
396582.325,40.9009,-378.344,0,0
397883.95,40.8198,-374.28,0,0
399185.575,41.2945,-370.463,0,0
400006.6,41.7132,-368.28,0,0