File: Accelerated corrosion test data/2025-10-15_12-55-04/sample_7.csv
Frequency (Hz),Impedance (ohms),Phase (Radians),Temperature (C),Humidity (%)
10000.0,274.992,-12058.8,0,0
11301.625,248.039,-10668.1,0,0
12603.25,256.521,-9619.13,0,0
13904.875,210.004,-8728.18,0,0
15206.5,196.064,-7993.26,0,0
16508.125,172.307,-7353.71,0,0
17809.75,171.261,-6800.94,0,0
19111.375,180.78,-6358.84,0,0
20413.0,168.898,-5966.92,0,0
21714.625,157.994,-5626.13,0,0
23016.25,131.021,-5304.33,0,0
24317.875,123.416,-5012.07,0,0
25619.5,119.383,-4749.21,0,0
26921.1,122.953,-4505.08,0,0
28222.7,177.745,-4294.71,0,0
29524.4,140.197,-4161.67,0,0
30826,132.58,-3979.83,0,0
32127.6,118.11,-3831.71,0,0
33429.2,101.956,-3681.56,0,0
34730.9,92.9147,-3537.17,0,0
36032.5,89.1788,-3403.86,0,0
37334.1,86.6663,-3280.44,0,0
38635.7,87.2769,-3163.41,0,0
39937.4,98.9922,-3064.02,0,0
41239,87.1741,-2977.11,0,0
42540.6,80.5928,-2881.2,0,0
43842.225,79.6049,-2792.62,0,0
45143.85,80.7469,-2715.26,0,0
46445.475,77.4036,-2642.78,0,0
47747.1,71.1832,-2566.79,0,0
49048.725,68.4678,-2496.56,0,0
50350.35,66.3953,-2429.71,0,0
51651.975,64.8673,-2366.35,0,0
52953.6,63.9369,-2305.97,0,0
54255.225,62.5284,-2249.46,0,0
55556.85,61.2819,-2194.77,0,0
56858.475,60.4801,-2142.62,0,0
58160.1,59.5035,-2092.25,0,0
59461.7,59.8175,-2044.8,0,0
60763.3,59.4254,-2001.03,0,0
62065,57.1493,-1957.91,0,0
63366.6,55.9739,-1915.16,0,0
64668.2,55.3316,-1874.76,0,0
65969.8,55.2632,-1836.32,0,0
67271.5,53.4959,-1799.6,0,0
68573.1,52.32,-1762.98,0,0
69874.7,51.7722,-1727.74,0,0
71176.3,51.5004,-1694.2,0,0
72478,50.5411,-1662.01,0,0
73779.6,49.7042,-1630.27,0,0
75081.2,49.2346,-1599.59,0,0
76382.825,48.6325,-1569.91,0,0
77684.45,48.2991,-1541.18,0,0
78986.075,48.0156,-1513.23,0,0
80287.7,47.8188,-1486.28,0,0
81589.325,47.5172,-1460.05,0,0
82890.95,47.2008,-1434.5,0,0
84192.575,47.1528,-1409.4,0,0
85494.2,47.429,-1385.41,0,0
86795.825,47.4962,-1362.04,0,0
88097.45,47.6803,-1339.51,0,0
89399.075,47.1539,-1317.25,0,0
90700.7,47.3632,-1295.03,0,0
92002.3,47.7859,-1273.42,0,0
93303.9,48.3625,-1252.4,0,0
94605.6,50.1676,-1232.57,0,0
95907.2,50.125,-1214.66,0,0
97208.8,49.6096,-1195.25,0,0
98510.4,50.4138,-1175.88,0,0
99812.1,49.9947,-1157.2,0,0
101114,51.6239,-1138.25,0,0
102415,53.2519,-1120.15,0,0
103717,55.9349,-1103.64,0,0
105019,56.9249,-1088.51,0,0
106320.175,56.3167,-1072.37,0,0
107621.8,57.4889,-1056.2,0,0
108923.425,58.5624,-1039.96,0,0
110225.05,59.0993,-1023.31,0,0
111526.675,62.4052,-1006.49,0,0
112828.3,66.9364,-990.474,0,0
114129.925,72.2167,-976.732,0,0
115431.55,78.2935,-964.543,0,0
116733.175,85.9893,-956.33,0,0
118034.8,89.0601,-951.21,0,0
119336.425,91.2525,-948.68,0,0
120638.05,84.153,-947.779,0,0
121939.675,73.8693,-937.009,0,0
123241,66.7502,-924.048,0,0
124543,62.3868,-909.167,0,0
125845,58.6283,-895.316,0,0
127146,55.3805,-880.491,0,0
128448,53.7554,-865.774,0,0
129749,52.3126,-851.301,0,0
131051,51.1776,-836.841,0,0
132353,50.4876,-821.583,0,0
133654,50.9768,-806.009,0,0
134956,53.7108,-791.309,0,0
136258,58.3717,-778.381,0,0
137559,58.9109,-770.794,0,0
138860.775,56.6057,-758.524,0,0
140162.4,56.7342,-744.706,0,0
141464.025,56.6323,-731.358,0,0
142765.65,57.7066,-716.873,0,0
144067.275,60.3458,-703.556,0,0
145368.9,61.8376,-691.121,0,0
146670.525,63.0065,-677.763,0,0
147972.15,64.7746,-664.368,0,0
149273.775,65.5565,-651.327,0,0
150575.4,66.148,-635.65,0,0
151877.025,68.5012,-618.322,0,0
153178.65,73.0931,-600.477,0,0
154480,79.3357,-582.502,0,0
155782,88.0258,-564.712,0,0
157084,99.1636,-547.843,0,0
158385,112.264,-534.419,0,0
159687,121.417,-524.948,0,0
160988,125.429,-510.185,0,0
162290,134.538,-485.908,0,0
163592,153.233,-460.504,0,0
164893,180.238,-439.994,0,0
166195,211.063,-418.132,0,0
167497,260.118,-401.935,0,0
168798,321.468,-406.945,0,0
170100,377.352,-441.789,0,0
171401.375,413.58,-498.522,0,0
172703.0,423.583,-566.061,0,0
174004.625,389.061,-627.034,0,0
175306.25,340.592,-638.868,0,0
176607.875,319.943,-626.365,0,0
177909.5,328.554,-626.391,0,0
179211.125,327.912,-664.146,0,0
180512.75,294.796,-684.126,0,0
181814.375,256.653,-696.05,0,0
183116.0,214.051,-686.071,0,0
184417.625,185.463,-663.95,0,0
185719.25,166.683,-641.314,0,0
187021,152.777,-614.075,0,0
188322,149.292,-589.411,0,0
189624,143.812,-571.515,0,0
190926,138.286,-549.094,0,0
192227,137.713,-525.333,0,0
193529,140.035,-500.772,0,0
194831,146.229,-476.534,0,0
196132,157.324,-455.524,0,0
197434,169.11,-437.578,0,0
198735,177.852,-420.521,0,0
200037,188.039,-399.352,0,0
201339,203.526,-376.293,0,0
202640.35,225.499,-351.546,0,0
203941.975,255.071,-330.82,0,0
205243.6,291.742,-312.878,0,0
206545.225,338.199,-309.903,0,0
207846.85,372.548,-317.977,0,0
209148.475,410.455,-314.294,0,0
210450.1,470.882,-329.653,0,0
211751.725,514.509,-380.346,0,0
213053.35,533.329,-434.081,0,0
214354.975,534.616,-480.863,0,0
215656.6,526.118,-520.711,0,0
216958.225,519.902,-558.232,0,0
218259.85,494.636,-593.619,0,0
219561,459.523,-615.561,0,0
220863,426.72,-614.384,0,0
222165,409.575,-602.897,0,0
223466,405.727,-595.096,0,0
224768,403.299,-592.077,0,0
226070,408.778,-585.405,0,0
227371,420.495,-590.865,0,0
228673,433.505,-605.274,0,0
229974,438.092,-628.879,0,0
231276,433.869,-659.981,0,0
232578,419.467,-689.277,0,0
233879,389.048,-718.44,0,0
235180.95,344.274,-727.841,0,0
236482.575,310.299,-715.274,0,0
237784.2,286.059,-705.258,0,0
239085.825,262.418,-685.707,0,0
240387.45,259.127,-665.299,0,0
241689.075,252.399,-659.815,0,0
242990.7,238.605,-648.299,0,0
244292.325,231.651,-628.849,0,0
245593.95,235.865,-615.13,0,0
246895.575,236.228,-607.34,0,0
248197.2,235.814,-597.358,0,0
249498.825,238.318,-586.676,0,0
250800,244.828,-576.75,0,0
252102,255.247,-570.481,0,0
253404,268.871,-572.262,0,0
254705,275.849,-583.023,0,0
256007,273.38,-593.794,0,0
257309,265.642,-599.375,0,0
258610,258.261,-598.817,0,0
259912,253.012,-598.204,0,0
261213,246.821,-593.141,0,0
262515,246.849,-584.503,0,0
263817,254.803,-581.646,0,0
265118,259.627,-587.722,0,0
266420,258.192,-592.457,0,0
267721.55,257.038,-597.473,0,0
269023.175,252.348,-600.5,0,0
270324.8,251.985,-599.136,0,0
271626.425,259.368,-603.147,0,0
272928.05,265.697,-624.948,0,0
274229.675,248.61,-653.124,0,0
275531.3,214.212,-666.957,0,0
276832.925,178.101,-659.27,0,0
278134.55,152.973,-637.805,0,0
279436.175,141.969,-614.274,0,0
280737.8,139.165,-594.173,0,0
282039.425,139.031,-581.529,0,0
283341,135.826,-568.522,0,0
284643,136.893,-552.932,0,0
285944,142.307,-540.98,0,0
287246,147.786,-533.424,0,0
288548,150.115,-526.678,0,0
289849,153.302,-517.759,0,0
291151,159.62,-508.686,0,0
292452,167.168,-502.584,0,0
293754,175.347,-497.586,0,0
295056,183.983,-493.35,0,0
296357,194.596,-490.493,0,0
297659,207.332,-490.124,0,0
298960.525,220.322,-494.054,0,0
300262.15,233.869,-501.208,0,0
301563.775,247.895,-514.194,0,0
302865.4,258.349,-538.365,0,0
304167.025,251.818,-566.464,0,0
305468.65,235.785,-586.048,0,0
306770.275,215.366,-598.046,0,0
308071.9,194.796,-602.163,0,0
309373.525,175.758,-600.207,0,0
310675.15,161.475,-593.935,0,0
311976.775,150.807,-587.819,0,0
313278.4,141.17,-581.769,0,0
314580,132.443,-574.115,0,0
315882,127.003,-565.42,0,0
317183,123.817,-558.461,0,0
318485,121.078,-552.815,0,0
319787,118.733,-547.718,0,0
321088,116.68,-543.633,0,0
322390,114.31,-540,0,0
323691,111.642,-536.692,0,0
324993,108.738,-532.896,0,0
326295,106.894,-529.411,0,0
327596,104.712,-527.051,0,0
328898,101.554,-524.695,0,0
330200,98.1063,-521.984,0,0
331501.125,94.5569,-519.352,0,0
332802.75,90.2123,-516.529,0,0
334104.375,85.1386,-512.703,0,0
335406.0,80.3734,-507.758,0,0
336707.625,76.068,-502.012,0,0
338009.25,72.5755,-495.527,0,0
339310.875,69.8786,-488.974,0,0
340612.5,67.8316,-482.098,0,0
341914.125,66.6006,-475.13,0,0
343215.75,66.4294,-468.27,0,0
344517.375,67.1495,-462.135,0,0
345819.0,68.2528,-457.015,0,0
347121,68.9259,-453.089,0,0
348422,68.6134,-449.172,0,0
349724,67.8843,-444.359,0,0
351025,67.4855,-438.966,0,0
352327,68.3308,-432.845,0,0
353629,70.4607,-427.568,0,0
354930,73.0491,-423.495,0,0
356232,75.4147,-420.983,0,0
357534,75.8984,-419.152,0,0
358835,75.0684,-415.978,0,0
360137,74.7478,-411.21,0,0
361438,75.8593,-405.873,0,0
362740.1,78.0361,-401.087,0,0
364041.725,80.6072,-396.907,0,0
365343.35,84.0709,-393.144,0,0
366644.975,87.618,-391.065,0,0
367946.6,90.4313,-389.517,0,0
369248.225,92.9816,-388.583,0,0
370549.85,94.5126,-388.782,0,0
371851.475,93.5447,-388.292,0,0
373153.1,92.6376,-385.299,0,0
374454.725,93.2686,-381.566,0,0
375756.35,94.7127,-378.393,0,0
377057.975,95.9061,-375.815,0,0
378359.6,97.0403,-372.198,0,0
379661,99.3301,-368.647,0,0
380963,102.013,-365.772,0,0
382264,104.582,-363.046,0,0
383566,107.672,-360.369,0,0
384868,111.139,-358.341,0,0
386169,114.099,-356.756,0,0
387471,117.15,-354.998,0,0
388773,120.254,-352.707,0,0
390074,125.039,-350.651,0,0
391376,129.892,-350.336,0,0
392677,134.188,-350.323,0,0
393979,138.25,-350.343,0,0
395280.7,142.971,-349.733,0,0
396582.325,149.787,-349.824,0,0
397883.95,158.076,-352.786,0,0
399185.575,165.999,-359.648,0,0
400006.6,169.506,-366.293,0,0