File: Accelerated corrosion test data/2025-10-15_12-55-04/sample_8.csv
Frequency (Hz),Impedance (ohms),Phase (Radians),Temperature (C),Humidity (%)
10000.0,312.532,-10937.7,0,0
11301.625,276.516,-9693.47,0,0
12603.25,254.193,-8705.34,0,0
13904.875,225.842,-7906,0,0
15206.5,205.479,-7235.05,0,0
16508.125,189.505,-6670.24,0,0
17809.75,175.911,-6184.7,0,0
19111.375,168.176,-5763.85,0,0
20413.0,160.908,-5403.41,0,0
21714.625,150.343,-5084.37,0,0
23016.25,144.561,-4802.49,0,0
24317.875,133.065,-4546.49,0,0
25619.5,126.097,-4314.31,0,0
26921.1,120.575,-4103.8,0,0
28222.7,117.459,-3914.85,0,0
29524.4,113.868,-3742.6,0,0
30826,109.727,-3585.29,0,0
32127.6,105.658,-3437.9,0,0
33429.2,105.2,-3301.46,0,0
34730.9,106.206,-3176.93,0,0
36032.5,108.849,-3066.32,0,0
37334.1,106.203,-2966.74,0,0
38635.7,96.4788,-2870.67,0,0
39937.4,88.5104,-2774.53,0,0
41239,85.7015,-2684.06,0,0
42540.6,82.5501,-2599.45,0,0
43842.225,81.7415,-2521.97,0,0
45143.85,77.7933,-2447.64,0,0
46445.475,75.0228,-2376.68,0,0
47747.1,73.3606,-2309.67,0,0
49048.725,71.0163,-2246.46,0,0
50350.35,69.1488,-2185.69,0,0
51651.975,68.2259,-2127.72,0,0
52953.6,67.7507,-2073.36,0,0
54255.225,66.6517,-2023.46,0,0
55556.85,63.6534,-1974.1,0,0
56858.475,61.4989,-1925.36,0,0
58160.1,60.5126,-1878.96,0,0
59461.7,59.8398,-1835.24,0,0
60763.3,58.5167,-1792.68,0,0
62065,58.0978,-1751.94,0,0
63366.6,58.2287,-1712.39,0,0
64668.2,59.1268,-1675.83,0,0
65969.8,58.1572,-1641.33,0,0
67271.5,56.1771,-1606.88,0,0
68573.1,55.2387,-1572.92,0,0
69874.7,54.9703,-1539.85,0,0
71176.3,54.9232,-1508.44,0,0
72478,55.112,-1478.82,0,0
73779.6,54.4208,-1449.86,0,0
75081.2,53.5338,-1421.35,0,0
76382.825,53.2837,-1393.49,0,0
77684.45,52.9655,-1366.87,0,0
78986.075,52.3532,-1340.54,0,0
80287.7,51.9319,-1314.5,0,0
81589.325,51.9195,-1288.83,0,0
82890.95,52.8691,-1263.86,0,0
84192.575,54.1136,-1240.13,0,0
85494.2,55.0062,-1218.52,0,0
86795.825,54.47,-1195.46,0,0
88097.45,55.2839,-1172.97,0,0
89399.075,56.0864,-1150.72,0,0
90700.7,58.0019,-1128.24,0,0
92002.3,62.2986,-1107.3,0,0
93303.9,66.0929,-1089.5,0,0
94605.6,65.9166,-1071.76,0,0
95907.2,67.777,-1052.08,0,0
97208.8,71.595,-1032.95,0,0
98510.4,76.4175,-1015.72,0,0
99812.1,81.1373,-1001.61,0,0
101114,84.906,-988.63,0,0
102415,86.6055,-977.21,0,0
103717,85.6756,-965.348,0,0
105019,85.0204,-951.949,0,0
106320.175,84.3987,-937.591,0,0
107621.8,84.6067,-924.013,0,0
108923.425,83.999,-909.782,0,0
110225.05,85.1357,-895.698,0,0
111526.675,85.7313,-882.925,0,0
112828.3,86.2442,-870.658,0,0
114129.925,86.039,-858.868,0,0
115431.55,85.5377,-846.753,0,0
116733.175,83.6943,-834.389,0,0
118034.8,83.1572,-820.991,0,0
119336.425,82.5176,-808.341,0,0
120638.05,81.1357,-795.23,0,0
121939.675,80.4359,-781.705,0,0
123241,80.0033,-768.237,0,0
124543,79.6048,-754.132,0,0
125845,79.9165,-740.256,0,0
127146,80.8645,-726.262,0,0
128448,81.9891,-712.888,0,0
129749,83.1074,-699.776,0,0
131051,84.1169,-686.118,0,0
132353,85.7148,-673.273,0,0
133654,86.4257,-660.166,0,0
134956,87.8933,-646.151,0,0
136258,90.9518,-633.002,0,0
137559,91.4039,-621.628,0,0
138860.775,90.6833,-606.382,0,0
140162.4,92.6627,-590.304,0,0
141464.025,95.5114,-574.337,0,0
142765.65,98.6187,-557.6,0,0
144067.275,103.387,-539.933,0,0
145368.9,110.215,-521.366,0,0
146670.525,119.841,-503.95,0,0
147972.15,129.965,-488.439,0,0
149273.775,142.063,-469.896,0,0
150575.4,160.761,-453.473,0,0
151877.025,185.489,-446.452,0,0
153178.65,201.518,-449.627,0,0
154480,208.248,-451.303,0,0
155782,219.265,-444.777,0,0
157084,224.13,-453.209,0,0
158385,220.811,-442.92,0,0
159687,232.932,-435.564,0,0
160988,232.289,-433.978,0,0
162290,238.927,-419.448,0,0
163592,252.43,-414.856,0,0
164893,260.96,-414.807,0,0
166195,262.441,-420.447,0,0
167497,251.861,-414.506,0,0
168798,248.031,-400.129,0,0
170100,249.09,-381.42,0,0
171401.375,251.475,-363.011,0,0
172703.0,262.53,-338.88,0,0
174004.625,278.569,-322.945,0,0
175306.25,285.46,-310.027,0,0
176607.875,296.688,-282.147,0,0
177909.5,318.293,-256.606,0,0
179211.125,348.121,-230.298,0,0
180512.75,390.723,-210.665,0,0
181814.375,436.677,-205.358,0,0
183116.0,479.11,-213.467,0,0
184417.625,507.218,-224.609,0,0
185719.25,535.82,-226.522,0,0
187021,570.275,-231.462,0,0
188322,606.662,-237.056,0,0
189624,642.516,-253.746,0,0
190926,677.009,-261.156,0,0
192227,724.39,-277.992,0,0
193529,774.08,-293.778,0,0
194831,847.196,-337.288,0,0
196132,904.661,-411.467,0,0
197434,935.233,-514.365,0,0
198735,925.379,-615.414,0,0
200037,893.457,-708.587,0,0
201339,835.31,-777.957,0,0
202640.35,760.238,-833.647,0,0
203941.975,688.012,-842.271,0,0
205243.6,633.347,-843.908,0,0
206545.225,579.817,-827.742,0,0
207846.85,561.36,-799.734,0,0
209148.475,553.529,-793.077,0,0
210450.1,545.309,-787.34,0,0
211751.725,541.89,-787.667,0,0
213053.35,540.123,-796.241,0,0
214354.975,533.48,-811.02,0,0
215656.6,519.863,-829.439,0,0
216958.225,497.234,-843.697,0,0
218259.85,473.036,-852.198,0,0
219561,448.912,-856.238,0,0
220863,423.676,-856.578,0,0
222165,402.895,-848.592,0,0
223466,389.752,-841.816,0,0
224768,381.366,-838.574,0,0
226070,373.131,-843.805,0,0
227371,356.449,-851.2,0,0
228673,335.118,-853.621,0,0
229974,315.072,-853.579,0,0
231276,291.746,-851.856,0,0
232578,268.219,-844.995,0,0
233879,245.664,-834.471,0,0
235180.95,225.057,-818.702,0,0
236482.575,210.342,-799.927,0,0
237784.2,200.752,-781.361,0,0
239085.825,196.157,-763.803,0,0
240387.45,194.963,-752.083,0,0
241689.075,190.71,-744.485,0,0
242990.7,183.138,-735.059,0,0
244292.325,177.412,-722.895,0,0
245593.95,174.194,-711.765,0,0
246895.575,171.776,-701.22,0,0
248197.2,168.854,-692.122,0,0
249498.825,165.431,-681.259,0,0
250800,164.331,-668.912,0,0
252102,167.63,-657.448,0,0
253404,172.355,-651.681,0,0
254705,172.458,-647.701,0,0
256007,171.108,-641.649,0,0
257309,170.442,-633.435,0,0
258610,172.405,-624.164,0,0
259912,177.539,-616.059,0,0
261213,183.377,-611.056,0,0
262515,189.144,-608.099,0,0
263817,192.584,-605.61,0,0
265118,196.264,-600.203,0,0
266420,205.589,-593.218,0,0
267721.55,223.081,-591.413,0,0
269023.175,242.716,-602.803,0,0
270324.8,253.844,-625.062,0,0
271626.425,252.812,-652.715,0,0
272928.05,238.053,-677.823,0,0
274229.675,212.143,-693.429,0,0
275531.3,184.594,-694.388,0,0
276832.925,163.978,-686.676,0,0
278134.55,149.184,-676.789,0,0
279436.175,137.809,-665.437,0,0
280737.8,131.814,-653.343,0,0
282039.425,129.667,-644.09,0,0
283341,128.092,-638.562,0,0
284643,124.715,-633.256,0,0
285944,123.465,-626.294,0,0
287246,126.256,-623.159,0,0
288548,125.922,-627.248,0,0
289849,118.005,-630.387,0,0
291151,108.002,-628.291,0,0
292452,99.2445,-623.711,0,0
293754,91.5425,-617.373,0,0
295056,84.9083,-609.961,0,0
296357,80.2281,-601.778,0,0
297659,76.5726,-594.109,0,0
298960.525,73.6113,-586.213,0,0
300262.15,71.7324,-578.125,0,0
301563.775,71.466,-570.255,0,0
302865.4,72.3955,-563.738,0,0
304167.025,73.6997,-558.588,0,0
305468.65,74.8401,-554.494,0,0
306770.275,75.7937,-551.404,0,0
308071.9,76.309,-549.003,0,0
309373.525,75.7763,-547.847,0,0
310675.15,73.7988,-545.868,0,0
311976.775,71.8643,-543.33,0,0
313278.4,69.6945,-540.784,0,0
314580,67.0675,-537.727,0,0
315882,64.6804,-533.964,0,0
317183,62.8262,-529.698,0,0
318485,61.6834,-525.693,0,0
319787,61.0367,-522.149,0,0
321088,60.1427,-519.447,0,0
322390,58.7355,-516.957,0,0
323691,56.7804,-514.388,0,0
324993,54.2528,-511.405,0,0
326295,51.6613,-507.703,0,0
327596,49.5825,-503.474,0,0
328898,47.9614,-499.265,0,0
330200,46.5164,-494.906,0,0
331501.125,45.3486,-490.664,0,0
332802.75,44.3525,-486.239,0,0
334104.375,43.853,-481.836,0,0
335406.0,43.6812,-477.821,0,0
336707.625,43.6078,-474.211,0,0
338009.25,43.4285,-470.915,0,0
339310.875,43.0224,-467.751,0,0
340612.5,42.3281,-464.665,0,0
341914.125,41.375,-461.255,0,0
343215.75,40.6531,-457.558,0,0
344517.375,40.0883,-453.704,0,0
345819.0,39.7639,-449.782,0,0
347121,39.8161,-445.796,0,0
348422,40.1373,-442.001,0,0
349724,40.6529,-438.43,0,0
351025,41.4006,-435.03,0,0
352327,42.2157,-431.999,0,0
353629,42.8712,-429.33,0,0
354930,43.4507,-426.772,0,0
356232,43.9153,-424.336,0,0
357534,44.1891,-421.899,0,0
358835,44.4423,-419.405,0,0
360137,44.7131,-416.966,0,0
361438,44.9678,-414.519,0,0
362740.1,45.2078,-412.164,0,0
364041.725,45.4348,-409.765,0,0
365343.35,45.7993,-407.29,0,0
366644.975,46.2071,-405.014,0,0
367946.6,46.5585,-402.752,0,0
369248.225,47.0206,-400.326,0,0
370549.85,48.0233,-398.166,0,0
371851.475,48.8728,-396.795,0,0
373153.1,49.1273,-395.659,0,0
374454.725,48.8528,-394.437,0,0
375756.35,48.3068,-392.632,0,0
377057.975,48.342,-390.521,0,0
378359.6,48.4299,-389.146,0,0
379661,47.6473,-387.507,0,0
380963,47.5272,-385.056,0,0
382264,47.9762,-383.762,0,0
383566,47.1958,-382.892,0,0
384868,45.7664,-381.22,0,0
386169,44.4079,-378.781,0,0
387471,43.3818,-375.923,0,0
388773,42.81,-372.821,0,0
390074,42.8309,-369.851,0,0
391376,42.8715,-367.24,0,0
392677,42.7955,-364.753,0,0
393979,42.6479,-362.124,0,0
395280.7,42.586,-359.315,0,0
396582.325,42.8304,-356.485,0,0
397883.95,43.1959,-353.874,0,0
399185.575,43.5594,-351.382,0,0
400006.6,43.7425,-349.777,0,0