File: Accelerated corrosion test data/2025-10-15_12-55-04/sample_3.csv
Frequency (Hz),Impedance (ohms),Phase (Radians),Temperature (C),Humidity (%)
10000.0,251.219,-11855.9,0,0
11301.625,223.975,-10501.9,0,0
12603.25,202.513,-9424.69,0,0
13904.875,185.368,-8546.61,0,0
15206.5,173.42,-7812.15,0,0
16508.125,161.527,-7214.46,0,0
17809.75,157.002,-6683.62,0,0
19111.375,146.695,-6230.58,0,0
20413.0,162.092,-5826.17,0,0
21714.625,138.722,-5503.44,0,0
23016.25,128.543,-5196.02,0,0
24317.875,119.286,-4915.36,0,0
25619.5,113.895,-4667.12,0,0
26921.1,108.626,-4435.31,0,0
28222.7,103.7,-4227.34,0,0
29524.4,109.303,-4049.78,0,0
30826,101.191,-3876.59,0,0
32127.6,101.566,-3710.76,0,0
33429.2,99.0458,-3586.29,0,0
34730.9,88.097,-3447.44,0,0
36032.5,83.68,-3318.54,0,0
37334.1,80.2911,-3200.42,0,0
38635.7,77.9618,-3089.86,0,0
39937.4,75.8423,-2986.62,0,0
41239,74.259,-2889.15,0,0
42540.6,73.0823,-2798.76,0,0
43842.225,71.7632,-2712.77,0,0
45143.85,70.9972,-2632.86,0,0
46445.475,69.8226,-2556.71,0,0
47747.1,70.3541,-2483.65,0,0
49048.725,68.6679,-2417.79,0,0
50350.35,66.6008,-2352.45,0,0
51651.975,66.2117,-2289.22,0,0
52953.6,66.4899,-2229.14,0,0
54255.225,69.541,-2173.99,0,0
55556.85,66.7992,-2126.42,0,0
56858.475,61.8851,-2073.21,0,0
58160.1,61.2113,-2020.86,0,0
59461.7,61.8169,-1971.41,0,0
60763.3,63.0955,-1924.53,0,0
62065,65.1112,-1879.45,0,0
63366.6,69.1372,-1835.62,0,0
64668.2,78.0585,-1793.67,0,0
65969.8,92.4933,-1768.35,0,0
67271.5,76.0318,-1742.93,0,0
68573.1,76.3574,-1705.08,0,0
69874.7,76.2212,-1675.68,0,0
71176.3,70.9137,-1644.9,0,0
72478,69.7176,-1612,0,0
73779.6,68.0631,-1583.62,0,0
75081.2,64.4404,-1555.28,0,0
76382.825,60.8097,-1525.84,0,0
77684.45,58.2976,-1496.78,0,0
78986.075,56.0648,-1468.1,0,0
80287.7,54.5114,-1439.9,0,0
81589.325,53.4447,-1412.56,0,0
82890.95,52.9425,-1385.94,0,0
84192.575,52.6823,-1360.19,0,0
85494.2,52.6662,-1335.03,0,0
86795.825,52.8085,-1310.6,0,0
88097.45,53.3591,-1286.52,0,0
89399.075,54.6197,-1262.6,0,0
90700.7,56.9896,-1240.77,0,0
92002.3,59.1723,-1220.15,0,0
93303.9,62.0713,-1201.2,0,0
94605.6,62.6621,-1186.6,0,0
95907.2,57.6009,-1168.59,0,0
97208.8,56.3687,-1147.26,0,0
98510.4,56.0586,-1127.42,0,0
99812.1,55.5637,-1108.34,0,0
101114,55.1625,-1088.41,0,0
102415,56.6119,-1067.84,0,0
103717,60.5433,-1050.21,0,0
105019,63.6968,-1035.9,0,0
106320.175,63.0986,-1021.9,0,0
107621.8,61.0569,-1006.25,0,0
108923.425,59.2611,-988.725,0,0
110225.05,59.3099,-970.114,0,0
111526.675,61.5888,-952.147,0,0
112828.3,63.7202,-936.056,0,0
114129.925,65.2596,-920.097,0,0
115431.55,67.4245,-903.104,0,0
116733.175,71.1145,-886.435,0,0
118034.8,77.0985,-870.384,0,0
119336.425,83.6229,-858.327,0,0
120638.05,89.9371,-852.36,0,0
121939.675,86.8458,-843.849,0,0
123241,87.2725,-830.352,0,0
124543,88.9072,-818.931,0,0
125845,90.3329,-808.514,0,0
127146,89.6896,-798.777,0,0
128448,88.1952,-787.949,0,0
129749,86.6847,-774.989,0,0
131051,87.7708,-762.021,0,0
132353,87.1355,-751.041,0,0
133654,86.2895,-739.263,0,0
134956,84.672,-726.592,0,0
136258,83.23,-713.177,0,0
137559,82.854,-697.871,0,0
138860.775,84.157,-684.087,0,0
140162.4,83.4865,-670.64,0,0
141464.025,83.0016,-656.346,0,0
142765.65,82.2582,-640.286,0,0
144067.275,82.6126,-623.01,0,0
145368.9,84.3387,-604.822,0,0
146670.525,86.991,-585.967,0,0
147972.15,91.3487,-565.902,0,0
149273.775,97.9205,-545.551,0,0
150575.4,108.572,-525.311,0,0
151877.025,121.34,-508.388,0,0
153178.65,133.678,-494.902,0,0
154480,143.746,-482.817,0,0
155782,152.031,-466.344,0,0
157084,163.942,-448.811,0,0
158385,180.381,-437.802,0,0
159687,184.697,-423.064,0,0
160988,200.401,-395.472,0,0
162290,226.227,-369.948,0,0
163592,261.471,-348.15,0,0
164893,310.736,-336.942,0,0
166195,362.384,-349.779,0,0
167497,402.072,-381.484,0,0
168798,423.61,-418.727,0,0
170100,421.867,-460.826,0,0
171401.375,406.042,-475.57,0,0
172703.0,403.041,-476.6,0,0
174004.625,411.514,-487.511,0,0
175306.25,413.027,-504.052,0,0
176607.875,410.972,-522.018,0,0
177909.5,389.276,-539.5,0,0
179211.125,366.545,-531.692,0,0
180512.75,362.258,-518.753,0,0
181814.375,367.197,-515.54,0,0
183116.0,360.077,-521.564,0,0
184417.625,345.128,-519.076,0,0
185719.25,330.844,-505.504,0,0
187021,326.52,-482.786,0,0
188322,333.299,-465.07,0,0
189624,337.831,-450.344,0,0
190926,347.915,-436.209,0,0
192227,356.5,-422.857,0,0
193529,367.634,-403.701,0,0
194831,391.422,-386.507,0,0
196132,424.152,-380.582,0,0
197434,447.348,-392.513,0,0
198735,461.09,-398.803,0,0
200037,471.086,-404.665,0,0
201339,476.659,-398.726,0,0
202640.35,497.419,-389.15,0,0
203941.975,527.306,-389.498,0,0
205243.6,555.593,-402.994,0,0
206545.225,567.992,-418.638,0,0
207846.85,588.038,-418.164,0,0
209148.475,620.571,-427.734,0,0
210450.1,653.237,-450.422,0,0
211751.725,679.656,-482.776,0,0
213053.35,700.55,-517.673,0,0
214354.975,715.025,-560.298,0,0
215656.6,722.029,-606.026,0,0
216958.225,718.727,-652.175,0,0
218259.85,706.119,-696.257,0,0
219561,687.316,-732.886,0,0
220863,668.049,-770.527,0,0
222165,638.901,-809.076,0,0
223466,592.751,-835.629,0,0
224768,551.545,-837.341,0,0
226070,530.791,-835.58,0,0
227371,513.102,-845.307,0,0
228673,487.287,-857.736,0,0
229974,460.253,-863.89,0,0
231276,432.012,-867.318,0,0
232578,404.734,-866.318,0,0
233879,379.81,-863.077,0,0
235180.95,356.449,-858.497,0,0
236482.575,331.767,-853.874,0,0
237784.2,307.049,-845.288,0,0
239085.825,283.016,-830.647,0,0
240387.45,265.656,-813.287,0,0
241689.075,251.041,-795.445,0,0
242990.7,242.41,-776.857,0,0
244292.325,237.949,-762.168,0,0
245593.95,232.386,-750.717,0,0
246895.575,227.115,-738.576,0,0
248197.2,223.094,-726.896,0,0
249498.825,222.421,-716.183,0,0
250800,220.192,-710.707,0,0
252102,213.425,-704.282,0,0
253404,205.372,-693.185,0,0
254705,200.755,-678.128,0,0
256007,201.445,-661.424,0,0
257309,209.072,-648.004,0,0
258610,216.375,-639.26,0,0
259912,228.14,-630.746,0,0
261213,244.242,-631.698,0,0
262515,254.068,-644.668,0,0
263817,251.772,-659.284,0,0
265118,240.966,-669.435,0,0
266420,226.481,-672.239,0,0
267721.55,212.613,-667.463,0,0
269023.175,203.631,-658.422,0,0
270324.8,198.102,-648.765,0,0
271626.425,196.826,-639.097,0,0
272928.05,196.808,-632.746,0,0
274229.675,196.314,-624.628,0,0
275531.3,200.37,-616.926,0,0
276832.925,207.775,-612.903,0,0
278134.55,215.308,-615.132,0,0
279436.175,218.731,-622.138,0,0
280737.8,216.141,-630.426,0,0
282039.425,209.008,-635.819,0,0
283341,199.954,-637.619,0,0
284643,190.598,-635.973,0,0
285944,182.27,-631.363,0,0
287246,176.503,-624.447,0,0
288548,174.808,-617.536,0,0
289849,174.375,-613.505,0,0
291151,173.205,-610.997,0,0
292452,170.329,-607.993,0,0
293754,168.939,-602.737,0,0
295056,170.904,-598.849,0,0
296357,173.692,-598.745,0,0
297659,174.049,-601.804,0,0
298960.525,170.896,-605.047,0,0
300262.15,165.702,-607.084,0,0
301563.775,159.143,-607.544,0,0
302865.4,152.146,-605.779,0,0
304167.025,145.832,-602.562,0,0
305468.65,140.305,-598.057,0,0
306770.275,136.371,-592.96,0,0
308071.9,133.897,-588.32,0,0
309373.525,131.751,-585.058,0,0
310675.15,128.956,-582.485,0,0
311976.775,124.808,-579.732,0,0
313278.4,120.165,-575.303,0,0
314580,116.405,-569.132,0,0
315882,115.198,-562.258,0,0
317183,115.998,-557.072,0,0
318485,116.49,-553.784,0,0
319787,116.501,-550.74,0,0
321088,116.683,-547.869,0,0
322390,117.725,-545.899,0,0
323691,118.25,-545.866,0,0
324993,116.93,-546.917,0,0
326295,113.53,-547.54,0,0
327596,109.114,-546.731,0,0
328898,104.609,-544.78,0,0
330200,100.326,-542.066,0,0
331501.125,96.1624,-539.141,0,0
332802.75,91.7137,-535.439,0,0
334104.375,87.4059,-530.925,0,0
335406.0,83.592,-525.428,0,0
336707.625,80.788,-519.3,0,0
338009.25,78.8103,-513.029,0,0
339310.875,77.5243,-506.491,0,0
340612.5,77.7587,-499.632,0,0
341914.125,79.6851,-493.716,0,0
343215.75,82.4176,-489.85,0,0
344517.375,84.3021,-487.987,0,0
345819.0,84.4972,-486.248,0,0
347121,84.2025,-484.035,0,0
348422,83.3956,-481.559,0,0
349724,82.8687,-477.913,0,0
351025,83.7923,-474.22,0,0
352327,85.662,-472.518,0,0
353629,85.8584,-472.158,0,0
354930,84.3576,-471.152,0,0
356232,82.5975,-469.169,0,0
357534,80.8438,-466.438,0,0
358835,79.7528,-462.797,0,0
360137,79.6307,-459.426,0,0
361438,79.563,-456.639,0,0
362740.1,79.2816,-453.646,0,0
364041.725,79.9369,-450.297,0,0
365343.35,81.4644,-448.329,0,0
366644.975,81.9105,-448.099,0,0
367946.6,80.2344,-447.509,0,0
369248.225,77.6919,-444.982,0,0
370549.85,77.1789,-440.406,0,0
371851.475,78.8948,-437.809,0,0
373153.1,79.1522,-437.545,0,0
374454.725,77.303,-436.332,0,0
375756.35,75.3698,-433.52,0,0
377057.975,74.6351,-429.696,0,0
378359.6,75.0415,-426.257,0,0
379661,75.9251,-423.61,0,0
380963,76.7246,-421.986,0,0
382264,76.7171,-420.523,0,0
383566,76.6427,-419.001,0,0
384868,75.776,-417.774,0,0
386169,74.55,-415.816,0,0
387471,73.2238,-413.279,0,0
388773,71.9683,-410.006,0,0
390074,71.5029,-405.942,0,0
391376,72.1843,-401.704,0,0
392677,74.2242,-398.039,0,0
393979,76.6922,-395.72,0,0
395280.7,79.024,-394.438,0,0
396582.325,80.8652,-394.054,0,0
397883.95,81.9518,-394.395,0,0
399185.575,81.8145,-394.843,0,0
400006.6,81.3999,-394.91,0,0