File: Accelerated corrosion test data/2025-10-15_12-55-04/sample_4.csv
Frequency (Hz),Impedance (ohms),Phase (Radians),Temperature (C),Humidity (%)
10000.0,263.823,-11890.5,0,0
11301.625,234.273,-10533.9,0,0
12603.25,213.831,-9450.69,0,0
13904.875,193.499,-8568.61,0,0
15206.5,181.456,-7842.28,0,0
16508.125,193.189,-7228.04,0,0
17809.75,155.596,-6719.88,0,0
19111.375,145.301,-6261.7,0,0
20413.0,140.738,-5860.65,0,0
21714.625,146.55,-5515.22,0,0
23016.25,125.431,-5214.57,0,0
24317.875,116.046,-4929.58,0,0
25619.5,111.926,-4675.89,0,0
26921.1,106.297,-4446.35,0,0
28222.7,118.861,-4243.67,0,0
29524.4,112.038,-4063.29,0,0
30826,99.0714,-3891.1,0,0
32127.6,99.8906,-3730.87,0,0
33429.2,90.2351,-3589.76,0,0
34730.9,84.6306,-3451.34,0,0
36032.5,81.6562,-3323.56,0,0
37334.1,79.5699,-3204.46,0,0
38635.7,77.1776,-3092.41,0,0
39937.4,76.9259,-2986.25,0,0
41239,80.1723,-2891.85,0,0
42540.6,78.8608,-2803.48,0,0
43842.225,73.651,-2720.38,0,0
45143.85,71.3032,-2639.39,0,0
46445.475,70.4027,-2561.76,0,0
47747.1,69.9624,-2491.94,0,0
49048.725,66.1586,-2422.45,0,0
50350.35,64.4341,-2355.06,0,0
51651.975,63.7679,-2290.37,0,0
52953.6,65.4386,-2227.24,0,0
54255.225,73.8175,-2170.93,0,0
55556.85,71.9267,-2127.67,0,0
56858.475,65.6889,-2073.45,0,0
58160.1,66.7401,-2021.14,0,0
59461.7,70.9552,-1970.8,0,0
60763.3,80.1479,-1932.22,0,0
62065,70.138,-1899.39,0,0
63366.6,64.3001,-1853.91,0,0
64668.2,64.5826,-1810.39,0,0
65969.8,66.5855,-1769.61,0,0
67271.5,70.6902,-1733.65,0,0
68573.1,73.944,-1704.79,0,0
69874.7,66.3618,-1674.55,0,0
71176.3,64.9266,-1640.26,0,0
72478,59.5189,-1608.77,0,0
73779.6,57.7731,-1572.4,0,0
75081.2,59.9413,-1539.41,0,0
76382.825,62.3535,-1510.51,0,0
77684.45,65.1843,-1482.9,0,0
78986.075,63.7848,-1460.33,0,0
80287.7,60.9165,-1433.37,0,0
81589.325,60.2839,-1407.34,0,0
82890.95,59.0807,-1382.19,0,0
84192.575,57.8916,-1357.31,0,0
85494.2,57.1277,-1332.92,0,0
86795.825,56.4203,-1309.35,0,0
88097.45,54.9749,-1286.75,0,0
89399.075,53.6049,-1262.46,0,0
90700.7,53.4657,-1239.18,0,0
92002.3,53.7556,-1216.02,0,0
93303.9,54.9502,-1195.16,0,0
94605.6,53.6403,-1174.75,0,0
95907.2,53.1179,-1152.14,0,0
97208.8,53.9735,-1130.42,0,0
98510.4,55.3658,-1108.82,0,0
99812.1,58.0241,-1087.98,0,0
101114,62.3809,-1069.68,0,0
102415,61.4983,-1055.23,0,0
103717,58.6415,-1032.35,0,0
105019,62.5678,-1008.67,0,0
106320.175,69.2497,-988.264,0,0
107621.8,76.2434,-970.448,0,0
108923.425,84.8021,-953.988,0,0
110225.05,93.0283,-941.663,0,0
111526.675,99.1327,-931.285,0,0
112828.3,103.804,-921.734,0,0
114129.925,106.899,-913.129,0,0
115431.55,108.44,-904.857,0,0
116733.175,107.706,-896.37,0,0
118034.8,105.339,-885.417,0,0
119336.425,106.13,-871.1,0,0
120638.05,111.393,-865.814,0,0
121939.675,104.291,-859.339,0,0
123241,99.6012,-846.873,0,0
124543,96.4926,-834.056,0,0
125845,94.5156,-821.76,0,0
127146,91.1038,-810.477,0,0
128448,86.3107,-798.643,0,0
129749,79.8657,-783.745,0,0
131051,75.2368,-765.884,0,0
132353,72.8509,-747.12,0,0
133654,72.2343,-728.273,0,0
134956,72.9366,-709.458,0,0
136258,75.0782,-691.013,0,0
137559,77.6615,-673.742,0,0
138860.775,79.6265,-655.773,0,0
140162.4,83.0303,-636.82,0,0
141464.025,88.0406,-617.815,0,0
142765.65,93.9708,-599.427,0,0
144067.275,100.65,-581.038,0,0
145368.9,108.497,-562.195,0,0
146670.525,118.252,-543.592,0,0
147972.15,129.153,-525.64,0,0
149273.775,141.726,-507.767,0,0
150575.4,156.624,-489.669,0,0
151877.025,175.483,-473.378,0,0
153178.65,197.841,-461.584,0,0
154480,219.346,-456.729,0,0
155782,236.207,-453.04,0,0
157084,250.84,-450.457,0,0
158385,266.402,-444.558,0,0
159687,287.906,-442.503,0,0
160988,304.469,-450.497,0,0
162290,311.554,-455.786,0,0
163592,316.73,-455.392,0,0
164893,325.515,-449.371,0,0
166195,341.184,-442.056,0,0
167497,368.32,-441.947,0,0
168798,394.245,-458.265,0,0
170100,411.591,-487.345,0,0
171401.375,407.061,-525.28,0,0
172703.0,382.056,-550.674,0,0
174004.625,348.733,-555.476,0,0
175306.25,321.124,-543.92,0,0
176607.875,303.64,-521.75,0,0
177909.5,297.562,-498.38,0,0
179211.125,297.074,-477.299,0,0
180512.75,300.841,-458.6,0,0
181814.375,304.816,-442.015,0,0
183116.0,307.95,-424.548,0,0
184417.625,312.587,-403.321,0,0
185719.25,321.491,-379.45,0,0
187021,334.656,-354.15,0,0
188322,353.387,-327.134,0,0
189624,379.406,-299.824,0,0
190926,414.117,-274.473,0,0
192227,457.461,-253.628,0,0
193529,508.368,-241.114,0,0
194831,563.582,-238.082,0,0
196132,621.924,-242.754,0,0
197434,687.097,-257.553,0,0
198735,756.982,-290.359,0,0
200037,823.526,-348.824,0,0
201339,868.504,-429.583,0,0
202640.35,884.513,-515.75,0,0
203941.975,882.704,-595.635,0,0
205243.6,862.313,-668.229,0,0
206545.225,834.807,-729.457,0,0
207846.85,797.31,-791.442,0,0
209148.475,740.741,-835.553,0,0
210450.1,684.704,-856.7,0,0
211751.725,636.174,-863.143,0,0
213053.35,599.036,-861.457,0,0
214354.975,571.433,-854.985,0,0
215656.6,556.959,-855.989,0,0
216958.225,536.769,-864.505,0,0
218259.85,516.064,-869.833,0,0
219561,495.991,-875.697,0,0
220863,472.923,-882.607,0,0
222165,448.824,-885.908,0,0
223466,425.264,-887.034,0,0
224768,402.463,-888.504,0,0
226070,375.923,-889.482,0,0
227371,347.148,-885.41,0,0
228673,318.325,-875.036,0,0
229974,294.534,-858.608,0,0
231276,276.034,-840.66,0,0
232578,261.872,-822.639,0,0
233879,251.23,-805.217,0,0
235180.95,243.62,-789.007,0,0
236482.575,237.174,-774.759,0,0
237784.2,232.404,-760.101,0,0
239085.825,230.889,-747.577,0,0
240387.45,229.74,-738.294,0,0
241689.075,227.913,-731.06,0,0
242990.7,224.494,-725.273,0,0
244292.325,219.124,-719.407,0,0
245593.95,212.426,-711.355,0,0
246895.575,207.152,-701.497,0,0
248197.2,204.264,-691.65,0,0
249498.825,201.524,-682.825,0,0
250800,199.17,-674.987,0,0
252102,194.66,-667.846,0,0
253404,188.335,-657.21,0,0
254705,184.172,-643.583,0,0
256007,182.121,-626.765,0,0
257309,185.648,-608.024,0,0
258610,194.94,-590.203,0,0
259912,210.551,-576.204,0,0
261213,228.879,-567.12,0,0
262515,249.223,-564.589,0,0
263817,271.099,-569.062,0,0
265118,288.685,-582.237,0,0
266420,300.112,-599.31,0,0
267721.55,306.052,-619.914,0,0
269023.175,302.333,-643.596,0,0
270324.8,287.555,-658.451,0,0
271626.425,276.308,-665.786,0,0
272928.05,266.583,-673.796,0,0
274229.675,253.945,-682.315,0,0
275531.3,235.869,-688.502,0,0
276832.925,215.286,-687.525,0,0
278134.55,195.775,-677.374,0,0
279436.175,185.876,-660.985,0,0
280737.8,184.931,-649.605,0,0
282039.425,182.426,-642.687,0,0
283341,182.342,-635.26,0,0
284643,181.87,-632.872,0,0
285944,177.908,-630.97,0,0
287246,171.609,-625.457,0,0
288548,166.397,-615.922,0,0
289849,168.388,-602.162,0,0
291151,178.549,-593.744,0,0
292452,190.998,-594.036,0,0
293754,199.443,-603.165,0,0
295056,199.802,-615.967,0,0
296357,191.312,-626.713,0,0
297659,179.475,-630.354,0,0
298960.525,169.493,-629.717,0,0
300262.15,160.921,-628.116,0,0
301563.775,152.419,-625.224,0,0
302865.4,145.017,-621.028,0,0
304167.025,138.142,-615.945,0,0
305468.65,132.802,-609.812,0,0
306770.275,128.932,-603.638,0,0
308071.9,126.77,-598.173,0,0
309373.525,125.042,-594.363,0,0
310675.15,121.999,-591.463,0,0
311976.775,118.4,-587.44,0,0
313278.4,115.454,-582.883,0,0
314580,113.489,-578.327,0,0
315882,112.197,-574.65,0,0
317183,110.953,-571.669,0,0
318485,109.32,-569.682,0,0
319787,106.914,-568.471,0,0
321088,102.853,-567.649,0,0
322390,96.4934,-565.716,0,0
323691,89.4878,-560.488,0,0
324993,85.0021,-553.344,0,0
326295,82.177,-546.69,0,0
327596,79.4893,-539.917,0,0
328898,77.8807,-532.79,0,0
330200,77.6915,-525.68,0,0
331501.125,78.9803,-519.686,0,0
332802.75,80.4975,-515.659,0,0
334104.375,80.7115,-512.99,0,0
335406.0,79.4452,-509.928,0,0
336707.625,77.2884,-505.731,0,0
338009.25,75.8155,-500.096,0,0
339310.875,75.5088,-493.909,0,0
340612.5,76.6862,-487.382,0,0
341914.125,79.8623,-481.519,0,0
343215.75,84.4514,-478.161,0,0
344517.375,88.1371,-477.465,0,0
345819.0,89.8102,-478.026,0,0
347121,89.6668,-478.454,0,0
348422,88.2061,-478.256,0,0
349724,86.1938,-476.857,0,0
351025,84.1301,-474.56,0,0
352327,82.1763,-471.381,0,0
353629,81.2669,-467.364,0,0
354930,81.4772,-464.118,0,0
356232,81.3967,-461.551,0,0
357534,80.8832,-459.262,0,0
358835,79.7405,-456.501,0,0
360137,78.5972,-452.952,0,0
361438,78.2377,-448.71,0,0
362740.1,79.0228,-444.824,0,0
364041.725,79.685,-441.727,0,0
365343.35,79.7642,-438.592,0,0
366644.975,80.0728,-434.246,0,0
367946.6,81.7795,-429.603,0,0
369248.225,84.8891,-425.38,0,0
370549.85,89.1074,-422.227,0,0
371851.475,94.5941,-420.992,0,0
373153.1,99.4722,-422.732,0,0
374454.725,101.619,-426.556,0,0
375756.35,100.743,-429.241,0,0
377057.975,99.6204,-430.354,0,0
378359.6,98.5659,-431.095,0,0
379661,97.07,-431.55,0,0
380963,95.3034,-431.386,0,0
382264,94.4603,-430.116,0,0
383566,95.1995,-431.038,0,0
384868,93.0563,-433.882,0,0
386169,88.0668,-435.22,0,0
387471,82.3441,-433.309,0,0
388773,78.5116,-428.803,0,0
390074,77.8417,-424.225,0,0
391376,78.8523,-422.602,0,0
392677,77.4895,-423.466,0,0
393979,73.2623,-422.977,0,0
395280.7,68.8,-420.042,0,0
396582.325,65.5584,-415.853,0,0
397883.95,63.1234,-411.426,0,0
399185.575,61.2604,-406.635,0,0
400006.6,60.4583,-403.441,0,0