File: Accelerated corrosion test data/2025-10-15_12-55-04/sample_1.csv
Frequency (Hz),Impedance (ohms),Phase (Radians),Temperature (C),Humidity (%)
10000.0,246.342,-12195.3,0,0
11301.625,215.692,-10801.5,0,0
12603.25,198.554,-9702.59,0,0
13904.875,185.701,-8780.05,0,0
15206.5,188.214,-8046.75,0,0
16508.125,157.637,-7422.98,0,0
17809.75,147.895,-6889.08,0,0
19111.375,134.928,-6418.99,0,0
20413.0,158.08,-5976.66,0,0
21714.625,138.781,-5659.24,0,0
23016.25,125.817,-5357.29,0,0
24317.875,114.88,-5065.49,0,0
25619.5,105.354,-4800.82,0,0
26921.1,115.226,-4552.67,0,0
28222.7,111.014,-4349.17,0,0
29524.4,107.781,-4183.05,0,0
30826,101.139,-3995.73,0,0
32127.6,98.0833,-3838.25,0,0
33429.2,88.4827,-3694.54,0,0
34730.9,82.5422,-3552.71,0,0
36032.5,77.8878,-3421.95,0,0
37334.1,75.5981,-3299.58,0,0
38635.7,73.4235,-3186.33,0,0
39937.4,70.7377,-3079.55,0,0
41239,71.7878,-2980.98,0,0
42540.6,70.8661,-2888.38,0,0
43842.225,67.8504,-2801.95,0,0
45143.85,68.1656,-2720.24,0,0
46445.475,65.2462,-2643.65,0,0
47747.1,63.8247,-2570.28,0,0
49048.725,61.4453,-2500.2,0,0
50350.35,59.4722,-2433.72,0,0
51651.975,58.5678,-2370.19,0,0
52953.6,57.809,-2309.33,0,0
54255.225,56.6797,-2252.42,0,0
55556.85,55.6294,-2196.98,0,0
56858.475,54.7988,-2144.02,0,0
58160.1,54.4514,-2093.45,0,0
59461.7,54.2681,-2045.54,0,0
60763.3,54.3883,-1999.6,0,0
62065,53.0633,-1955.7,0,0
63366.6,52.4363,-1912.18,0,0
64668.2,52.9393,-1870.03,0,0
65969.8,54.9305,-1832.4,0,0
67271.5,53.9662,-1795.86,0,0
68573.1,53.2485,-1760.16,0,0
69874.7,52.0826,-1726.42,0,0
71176.3,50.6374,-1691.89,0,0
72478,48.478,-1658.25,0,0
73779.6,48.1046,-1624.72,0,0
75081.2,48.458,-1592.49,0,0
76382.825,49.2215,-1561.5,0,0
77684.45,50.3579,-1532.16,0,0
78986.075,51.8445,-1504.67,0,0
80287.7,51.1562,-1478.17,0,0
81589.325,50.5607,-1450.33,0,0
82890.95,51.2331,-1423.5,0,0
84192.575,52.9671,-1397.47,0,0
85494.2,54.9717,-1372.74,0,0
86795.825,55.8903,-1349.8,0,0
88097.45,56.2624,-1326.43,0,0
89399.075,58.1009,-1301.84,0,0
90700.7,61.3531,-1278.69,0,0
92002.3,67.7494,-1257.54,0,0
93303.9,75.1416,-1240.74,0,0
94605.6,73.6956,-1233.79,0,0
95907.2,66.6933,-1214.98,0,0
97208.8,64.6232,-1194.28,0,0
98510.4,64.1853,-1173.57,0,0
99812.1,63.3027,-1154.1,0,0
101114,63.2923,-1134.01,0,0
102415,63.4194,-1112.48,0,0
103717,68.2144,-1091.18,0,0
105019,75.2473,-1073.9,0,0
106320.175,81.5949,-1057.62,0,0
107621.8,88.0914,-1045.53,0,0
108923.425,92.1988,-1035.02,0,0
110225.05,93.8917,-1026.72,0,0
111526.675,93.8613,-1014.04,0,0
112828.3,95.7952,-1004.61,0,0
114129.925,94.4325,-996.43,0,0
115431.55,91.0728,-986.535,0,0
116733.175,86.4534,-974.224,0,0
118034.8,82.3417,-959.715,0,0
119336.425,80.8904,-944.078,0,0
120638.05,81.388,-929.715,0,0
121939.675,80.4393,-917.228,0,0
123241,79.0749,-902.87,0,0
124543,78.9292,-887.835,0,0
125845,79.7514,-873.094,0,0
127146,81.1031,-858.841,0,0
128448,83.1705,-844.302,0,0
129749,85.706,-830.437,0,0
131051,90.7643,-817.23,0,0
132353,94.9506,-807.015,0,0
133654,97.5932,-796.689,0,0
134956,100.24,-786.138,0,0
136258,102.95,-775.477,0,0
137559,107.656,-765.621,0,0
138860.775,109.816,-759.355,0,0
140162.4,109.49,-750.745,0,0
141464.025,109.293,-740.445,0,0
142765.65,109.985,-729.499,0,0
144067.275,111.519,-718.08,0,0
145368.9,114.036,-707.075,0,0
146670.525,116.763,-697.082,0,0
147972.15,119.024,-688.104,0,0
149273.775,120.689,-676.977,0,0
150575.4,122.798,-668.882,0,0
151877.025,121.343,-657.272,0,0
153178.65,121.618,-642.033,0,0
154480,125.987,-625.435,0,0
155782,133.604,-608.898,0,0
157084,145.906,-594.5,0,0
158385,158.457,-585.316,0,0
159687,168.226,-574.336,0,0
160988,186.754,-563.988,0,0
162290,206.011,-564.273,0,0
163592,217.214,-567.383,0,0
164893,228.845,-569.599,0,0
166195,241.15,-576.451,0,0
167497,246.378,-587.751,0,0
168798,244.15,-599.386,0,0
170100,234.431,-605.172,0,0
171401.375,225.953,-601.995,0,0
172703.0,222.778,-596.597,0,0
174004.625,219.1,-592.304,0,0
175306.25,217.764,-586.229,0,0
176607.875,217.923,-582.852,0,0
177909.5,216.998,-579.753,0,0
179211.125,212.837,-578.215,0,0
180512.75,205.78,-574.189,0,0
181814.375,198.894,-565.432,0,0
183116.0,192.893,-554.728,0,0
184417.625,187.815,-541.231,0,0
185719.25,186.671,-524.58,0,0
187021,188.252,-509.654,0,0
188322,191.573,-494.721,0,0
189624,195.533,-480.13,0,0
190926,200.211,-464.986,0,0
192227,205.829,-448.437,0,0
193529,214.728,-431.291,0,0
194831,225.21,-414.352,0,0
196132,238.626,-396.778,0,0
197434,254.829,-378.886,0,0
198735,275.564,-362.419,0,0
200037,297.471,-347.425,0,0
201339,324.891,-331.492,0,0
202640.35,360.943,-317.367,0,0
203941.975,404.537,-312.427,0,0
205243.6,456.224,-322.438,0,0
206545.225,499.278,-351.885,0,0
207846.85,526.961,-390.813,0,0
209148.475,539.555,-430.54,0,0
210450.1,536.802,-466.147,0,0
211751.725,526.35,-483.093,0,0
213053.35,524.591,-485.992,0,0
214354.975,537.553,-493.227,0,0
215656.6,550.414,-506.724,0,0
216958.225,561.168,-522.978,0,0
218259.85,573.775,-538.863,0,0
219561,589.854,-556.495,0,0
220863,610.034,-583.439,0,0
222165,628.201,-623.398,0,0
223466,631.728,-674.42,0,0
224768,620.639,-724.032,0,0
226070,598.45,-770.891,0,0
227371,566.611,-812.092,0,0
228673,522.716,-844.914,0,0
229974,475.093,-861.535,0,0
231276,431.056,-864.645,0,0
232578,395.339,-860.275,0,0
233879,366.974,-854.269,0,0
235180.95,342.712,-849.537,0,0
236482.575,317.534,-844.769,0,0
237784.2,293.622,-837.132,0,0
239085.825,271.674,-827.241,0,0
240387.45,252.452,-815.463,0,0
241689.075,236.031,-803.625,0,0
242990.7,221.827,-791.204,0,0
244292.325,209.646,-779.808,0,0
245593.95,197.811,-768.954,0,0
246895.575,186.17,-757.446,0,0
248197.2,176.103,-744.526,0,0
249498.825,168.048,-731.883,0,0
250800,160.992,-719.544,0,0
252102,154.846,-707.334,0,0
253404,149.383,-694.887,0,0
254705,145.547,-681.993,0,0
256007,143.693,-669.785,0,0
257309,142.329,-658.219,0,0
258610,141.818,-646.663,0,0
259912,143.681,-634.861,0,0
261213,148.044,-625.105,0,0
262515,153.253,-617.812,0,0
263817,158.812,-612.8,0,0
265118,164.733,-609.853,0,0
266420,171.196,-610.967,0,0
267721.55,173.093,-617.276,0,0
269023.175,167.999,-623.301,0,0
270324.8,157.729,-624.255,0,0
271626.425,147.876,-618.704,0,0
272928.05,141.958,-609.653,0,0
274229.675,140.096,-600.615,0,0
275531.3,140.359,-593.256,0,0
276832.925,141.341,-587.078,0,0
278134.55,143.543,-582.376,0,0
279436.175,145.53,-580.057,0,0
280737.8,145.894,-578.966,0,0
282039.425,144.638,-578.506,0,0
283341,141.152,-576.818,0,0
284643,137.881,-573.008,0,0
285944,135.534,-569.297,0,0
287246,131.218,-564.826,0,0
288548,128.564,-556.159,0,0
289849,130.946,-548.259,0,0
291151,134.086,-544.25,0,0
292452,135.632,-541.805,0,0
293754,134.589,-538.848,0,0
295056,133.505,-532.64,0,0
296357,136.369,-525.068,0,0
297659,141.486,-520.511,0,0
298960.525,146.372,-516.956,0,0
300262.15,151.708,-514.601,0,0
301563.775,158.031,-512.91,0,0
302865.4,165.336,-514.597,0,0
304167.025,170.332,-518.231,0,0
305468.65,174.482,-522.588,0,0
306770.275,177.769,-528.319,0,0
308071.9,178.598,-535.933,0,0
309373.525,176.458,-542.264,0,0
310675.15,174.494,-548.164,0,0
311976.775,170.566,-555.215,0,0
313278.4,163.248,-561.257,0,0
314580,154.843,-563.874,0,0
315882,147.306,-565.265,0,0
317183,138.972,-565.519,0,0
318485,131.006,-564.119,0,0
319787,123.524,-561.619,0,0
321088,116.405,-557.892,0,0
322390,110.385,-553.281,0,0
323691,105.736,-547.575,0,0
324993,102.763,-542.183,0,0
326295,101.071,-537.463,0,0
327596,99.7492,-533.788,0,0
328898,98.5333,-531.178,0,0
330200,96.8524,-529.376,0,0
331501.125,94.3678,-527.827,0,0
332802.75,91.1079,-526.08,0,0
334104.375,87.4978,-523.857,0,0
335406.0,83.6925,-520.924,0,0
336707.625,80.1105,-517.405,0,0
338009.25,76.8677,-513.599,0,0
339310.875,73.8557,-509.47,0,0
340612.5,71.3635,-505.242,0,0
341914.125,69.1908,-501.181,0,0
343215.75,67.0142,-497.24,0,0
344517.375,64.8267,-493.141,0,0
345819.0,62.8156,-488.807,0,0
347121,60.9204,-484.289,0,0
348422,59.5144,-479.515,0,0
349724,58.6227,-474.82,0,0
351025,57.9213,-470.397,0,0
352327,57.4502,-465.987,0,0
353629,57.2041,-461.871,0,0
354930,56.9332,-457.836,0,0
356232,56.8972,-453.858,0,0
357534,57.0048,-450.03,0,0
358835,57.0344,-446.341,0,0
360137,57.2436,-442.608,0,0
361438,57.6389,-439.054,0,0
362740.1,57.9557,-435.678,0,0
364041.725,58.3327,-432.094,0,0
365343.35,58.8849,-428.694,0,0
366644.975,59.4219,-425.512,0,0
367946.6,59.5803,-421.958,0,0
369248.225,60.2494,-417.521,0,0
370549.85,62.2361,-413.097,0,0
371851.475,65.3132,-409.348,0,0
373153.1,68.8711,-406.913,0,0
374454.725,72.3229,-405.833,0,0
375756.35,74.8566,-405.571,0,0
377057.975,76.7321,-405.368,0,0
378359.6,78.5271,-405.361,0,0
379661,79.6908,-405.714,0,0
380963,80.9589,-405.711,0,0
382264,82.4128,-407.155,0,0
383566,82.1355,-409.392,0,0
384868,80.2455,-411.059,0,0
386169,77.4866,-411.744,0,0
387471,74.3044,-411.039,0,0
388773,71.6469,-409.237,0,0
390074,69.9501,-407.06,0,0
391376,68.7388,-405.197,0,0
392677,67.3815,-403.821,0,0
393979,65.3313,-402.349,0,0
395280.7,62.9401,-400.076,0,0
396582.325,60.8817,-397.056,0,0
397883.95,59.3654,-393.658,0,0
399185.575,58.2622,-390.156,0,0
400006.6,57.744,-387.847,0,0