File: Accelerated corrosion test data/2025-10-22_06-00-04/sample_5.csv
Frequency (Hz),Impedance (ohms),Phase (Radians),Temperature (C),Humidity (%)
10000.0,3078.03,-2405.17,0,0
11301.625,2844.48,-2343.47,0,0
12603.25,2664.59,-2309.3,0,0
13904.875,2939.26,-3039.29,0,0
15206.5,2272.72,-2132.77,0,0
16508.125,2154.6,-2107.12,0,0
17809.75,610.645,-93.726,0,0
19111.375,1157.37,-383.232,0,0
20413.0,1708.4,-1125.94,0,0
21714.625,1769.42,-1991.18,0,0
23016.25,1684.6,-1962.66,0,0
24317.875,1818.6,-2092.35,0,0
25619.5,1599.8,-2556.09,0,0
26921.1,1514.34,-2489.58,0,0
28222.7,1431.55,-2429.35,0,0
29524.4,1352.06,-2375.61,0,0
30826,1281.53,-2318.21,0,0
32127.6,1216.35,-2263.19,0,0
33429.2,1163.03,-2199.9,0,0
34730.9,1107.37,-2147.65,0,0
36032.5,1050.62,-2105,0,0
37334.1,1005.35,-2052.65,0,0
38635.7,965.954,-1999.03,0,0
39937.4,949.314,-1922.8,0,0
41239,884.235,-1912.45,0,0
42540.6,846.797,-1873.42,0,0
43842.225,811.99,-1833.26,0,0
45143.85,783.019,-1790.1,0,0
46445.475,753.392,-1751.85,0,0
47747.1,725.834,-1715.13,0,0
49048.725,700.15,-1679.45,0,0
50350.35,677.066,-1645.1,0,0
51651.975,659.418,-1607.68,0,0
52953.6,639.826,-1573.69,0,0
54255.225,636.576,-1525.44,0,0
55556.85,637.812,-1474.79,0,0
56858.475,616.672,-1450.61,0,0
58160.1,592.315,-1430.92,0,0
59461.7,571.227,-1407.8,0,0
60763.3,544.079,-1391.18,0,0
62065,522.53,-1370.22,0,0
63366.6,489.654,-1361.25,0,0
64668.2,494.487,-1321.69,0,0
65969.8,480.307,-1298.56,0,0
67271.5,465.936,-1276.85,0,0
68573.1,452.719,-1255.79,0,0
69874.7,440.174,-1235.07,0,0
71176.3,427.61,-1216.37,0,0
72478,415.599,-1197.25,0,0
73779.6,405.578,-1178.13,0,0
75081.2,395.97,-1160.65,0,0
76382.825,384.628,-1143.26,0,0
77684.45,374.317,-1124.94,0,0
78986.075,362.722,-1108.64,0,0
80287.7,352.979,-1092.25,0,0
81589.325,343.679,-1075.13,0,0
82890.95,334.231,-1057.99,0,0
84192.575,325.657,-1040.76,0,0
85494.2,317.962,-1024.1,0,0
86795.825,310.123,-1007.82,0,0
88097.45,302.789,-990.518,0,0
89399.075,295.568,-973.944,0,0
90700.7,290.36,-958.567,0,0
92002.3,285.955,-943.633,0,0
93303.9,278.988,-930.369,0,0
94605.6,273.05,-915.29,0,0
95907.2,267.163,-900.978,0,0
97208.8,261.748,-886.35,0,0
98510.4,256.249,-871.664,0,0
99812.1,251.341,-857.164,0,0
101114,249.297,-842.33,0,0
102415,243.532,-830.385,0,0
103717,235.945,-819.039,0,0
105019,231.905,-805.811,0,0
106320.175,226.972,-792.38,0,0
107621.8,222.035,-778.769,0,0
108923.425,218.098,-765.062,0,0
110225.05,214.132,-751.632,0,0
111526.675,210.736,-737.682,0,0
112828.3,207.249,-724.137,0,0
114129.925,204.883,-710.654,0,0
115431.55,201.153,-698.192,0,0
116733.175,199.61,-684.429,0,0
118034.8,199.154,-670.612,0,0
119336.425,197.822,-658.622,0,0
120638.05,195.145,-647.802,0,0
121939.675,193.39,-636.148,0,0
123241,191.251,-624.071,0,0
124543,188.997,-611.149,0,0
125845,188.465,-598.393,0,0
127146,187.815,-586.155,0,0
128448,185.962,-574.667,0,0
129749,184.485,-562.246,0,0
131051,182.855,-548.884,0,0
132353,180.573,-535.074,0,0
133654,179.343,-520.908,0,0
134956,180.181,-505.916,0,0
136258,181.537,-490.873,0,0
137559,183.702,-476.641,0,0
138860.775,186.409,-463.205,0,0
140162.4,188.929,-449.932,0,0
141464.025,191.632,-436.655,0,0
142765.65,193.885,-423.43,0,0
144067.275,196.221,-409.898,0,0
145368.9,198.68,-395.221,0,0
146670.525,201.777,-379.78,0,0
147972.15,206.067,-363.602,0,0
149273.775,210.854,-347.463,0,0
150575.4,216.56,-329.552,0,0
151877.025,225.133,-310.857,0,0
153178.65,235.715,-292.326,0,0
154480,249.121,-274.391,0,0
155782,265.452,-257.96,0,0
157084,283.138,-244.768,0,0
158385,299.419,-233.069,0,0
159687,317.637,-220.6,0,0
160988,338.243,-209.986,0,0
162290,360.744,-202.595,0,0
163592,383.471,-198.842,0,0
164893,403.898,-198.506,0,0
166195,422.492,-198.671,0,0
167497,440.401,-199.163,0,0
168798,457.527,-200.541,0,0
170100,474.375,-201.973,0,0
171401.375,491.853,-205.088,0,0
172703.0,507.542,-209.173,0,0
174004.625,521.64,-213.614,0,0
175306.25,535.648,-216.642,0,0
176607.875,549.766,-218.175,0,0
177909.5,566.571,-222.606,0,0
179211.125,581.911,-227.933,0,0
180512.75,595.728,-232.381,0,0
181814.375,611.648,-236.465,0,0
183116.0,630.584,-241.976,0,0
184417.625,648.797,-249.597,0,0
185719.25,665.65,-258.339,0,0
187021,682.278,-265.74,0,0
188322,701.522,-272.589,0,0
189624,724.634,-280.576,0,0
190926,751.75,-293.219,0,0
192227,781.34,-311.941,0,0
193529,810.375,-337.351,0,0
194831,839.08,-373.073,0,0
196132,860.931,-413.219,0,0
197434,876.686,-460.705,0,0
198735,882.528,-509.758,0,0
200037,877.565,-555.082,0,0
201339,869.16,-610.697,0,0
202640.35,850.229,-656.697,0,0
203941.975,825.016,-700.92,0,0
205243.6,793.64,-740.081,0,0
206545.225,757.838,-771.709,0,0
207846.85,719.109,-796.747,0,0
209148.475,679.95,-812.497,0,0
210450.1,640.886,-823.866,0,0
211751.725,602.524,-831.529,0,0
213053.35,566.462,-833.921,0,0
214354.975,533.313,-830.941,0,0
215656.6,502.466,-826.016,0,0
216958.225,474.393,-818.014,0,0
218259.85,449.242,-807.425,0,0
219561,425.464,-796.738,0,0
220863,404.994,-783.213,0,0
222165,387.351,-768.767,0,0
223466,373.149,-753.644,0,0
224768,361.384,-738.737,0,0
226070,352.124,-724.695,0,0
227371,345.402,-711.019,0,0
228673,340.407,-698.134,0,0
229974,336.419,-686.92,0,0
231276,333.899,-676.208,0,0
232578,332.23,-666.657,0,0
233879,332.141,-657.359,0,0
235180.95,332.536,-649.877,0,0
236482.575,334.155,-643.277,0,0
237784.2,335.963,-639.047,0,0
239085.825,338.553,-635.909,0,0
240387.45,340.589,-635.037,0,0
241689.075,342.07,-635.158,0,0
242990.7,342.359,-636.805,0,0
244292.325,340.99,-638.99,0,0
245593.95,337.714,-641.453,0,0
246895.575,333.523,-642.128,0,0
248197.2,328.499,-640.781,0,0
249498.825,325.516,-635.936,0,0
250800,329.201,-630.52,0,0
252102,337.816,-632.606,0,0
253404,343.194,-643.506,0,0
254705,341.386,-657.625,0,0
256007,332.992,-670.827,0,0
257309,320.093,-680.77,0,0
258610,305.602,-686.256,0,0
259912,290.56,-688.313,0,0
261213,276.448,-687.791,0,0
262515,264.132,-684.755,0,0
263817,251.744,-681.556,0,0
265118,241.457,-676.762,0,0
266420,233.226,-670.895,0,0
267721.55,224.969,-665.965,0,0
269023.175,218.561,-660.412,0,0
270324.8,210.236,-656.464,0,0
271626.425,202.141,-652.067,0,0
272928.05,194.275,-646.924,0,0
274229.675,185.701,-641.888,0,0
275531.3,179.109,-635.203,0,0
276832.925,171.882,-628.633,0,0
278134.55,165.872,-621.072,0,0
279436.175,160.069,-613.525,0,0
280737.8,156.429,-605.642,0,0
282039.425,154.147,-598.517,0,0
283341,153.546,-591.904,0,0
284643,151.482,-586.68,0,0
285944,149.798,-581.596,0,0
287246,147.641,-577.071,0,0
288548,146.125,-572.762,0,0
289849,144.784,-568.979,0,0
291151,142.716,-565.564,0,0
292452,139.684,-562.103,0,0
293754,136.807,-558.168,0,0
295056,133.609,-553.964,0,0
296357,131.523,-548.893,0,0
297659,129.829,-543.688,0,0
298960.525,129.532,-538.77,0,0
300262.15,128.466,-535.308,0,0
301563.775,127.473,-532.349,0,0
302865.4,123.592,-530.932,0,0
304167.025,124.019,-527.083,0,0
305468.65,121.649,-524.32,0,0
306770.275,119.923,-520.807,0,0
308071.9,118.371,-517.207,0,0
309373.525,115.521,-514.179,0,0
310675.15,113.629,-510.697,0,0
311976.775,111.479,-507.317,0,0
313278.4,109.864,-503.618,0,0
314580,107.724,-500.278,0,0
315882,106.291,-496.703,0,0
317183,104.525,-493.449,0,0
318485,103.369,-489.912,0,0
319787,102.017,-486.601,0,0
321088,100.989,-483.467,0,0
322390,99.9129,-480.428,0,0
323691,98.3425,-477.641,0,0
324993,97.182,-474.686,0,0
326295,95.6304,-471.76,0,0
327596,93.8267,-468.776,0,0
328898,92.5354,-465.553,0,0
330200,91.4011,-462.146,0,0
331501.125,90.295,-458.937,0,0
332802.75,89.2972,-455.677,0,0
334104.375,88.2723,-452.581,0,0
335406.0,87.413,-449.427,0,0
336707.625,86.5123,-446.392,0,0
338009.25,84.5766,-443.769,0,0
339310.875,84.4343,-440.479,0,0
340612.5,83.8421,-437.402,0,0
341914.125,83.1972,-434.457,0,0
343215.75,82.82,-431.362,0,0
344517.375,81.5539,-428.697,0,0
345819.0,81.0415,-425.809,0,0
347121,79.5151,-423.433,0,0
348422,78.8249,-420.654,0,0
349724,78.8493,-417.557,0,0
351025,78.0878,-414.764,0,0
352327,77.5169,-411.958,0,0
353629,76.4772,-409.304,0,0
354930,75.5878,-406.566,0,0
356232,75.0338,-403.704,0,0
357534,74.442,-400.819,0,0
358835,73.8999,-397.945,0,0
360137,73.4437,-395.039,0,0
361438,72.9465,-392.066,0,0
362740.1,72.5211,-389.165,0,0
364041.725,71.466,-386.45,0,0
365343.35,71.1231,-383.524,0,0
366644.975,70.9444,-380.534,0,0
367946.6,70.9323,-377.526,0,0
369248.225,71.0458,-374.585,0,0
370549.85,71.2163,-371.708,0,0
371851.475,71.2914,-369.009,0,0
373153.1,71.5342,-366.425,0,0
374454.725,71.9092,-364.006,0,0
375756.35,72.2322,-361.844,0,0
377057.975,72.1235,-359.848,0,0
378359.6,71.8205,-357.745,0,0
379661,71.3395,-355.428,0,0
380963,70.9974,-352.836,0,0
382264,70.9036,-350.275,0,0
383566,70.7683,-347.944,0,0
384868,70.3651,-345.515,0,0
386169,70.0009,-342.939,0,0
387471,69.4655,-340.267,0,0
388773,69.3323,-337.452,0,0
390074,69.1246,-334.651,0,0
391376,69.1493,-331.737,0,0
392677,69.1057,-328.947,0,0
393979,69.1935,-326.067,0,0
395280.7,69.3458,-323.18,0,0
396582.325,69.5826,-320.29,0,0
397883.95,69.8656,-317.371,0,0
399185.575,70.236,-314.456,0,0
400006.6,70.541,-312.585,0,0