File: Accelerated corrosion test data/2025-10-22_06-00-04/sample_1.csv
Frequency (Hz),Impedance (ohms),Phase (Radians),Temperature (C),Humidity (%)
10000.0,242.046,-12214.3,0,0
11301.625,215.631,-10818.5,0,0
12603.25,195.774,-9717.12,0,0
13904.875,183.015,-8792.37,0,0
15206.5,190.542,-8058.92,0,0
16508.125,155.553,-7436.15,0,0
17809.75,146.413,-6899.27,0,0
19111.375,136.064,-6430.28,0,0
20413.0,156.427,-5985.66,0,0
21714.625,136.461,-5668.48,0,0
23016.25,122.338,-5367.74,0,0
24317.875,113.285,-5074.45,0,0
25619.5,105.871,-4809.46,0,0
26921.1,113.883,-4559.22,0,0
28222.7,110.77,-4356.57,0,0
29524.4,107.808,-4191.2,0,0
30826,101.427,-4003.25,0,0
32127.6,98.0401,-3845.49,0,0
33429.2,89.5632,-3701.76,0,0
34730.9,81.8768,-3559.64,0,0
36032.5,78.1312,-3428.41,0,0
37334.1,75.4497,-3306.14,0,0
38635.7,72.8465,-3192.4,0,0
39937.4,71.2128,-3085.36,0,0
41239,72.4599,-2986.48,0,0
42540.6,70.5943,-2893.96,0,0
43842.225,67.9222,-2807.66,0,0
45143.85,68.488,-2726.12,0,0
46445.475,65.1223,-2649.02,0,0
47747.1,64.0493,-2575.54,0,0
49048.725,61.5535,-2505.34,0,0
50350.35,59.5736,-2438.68,0,0
51651.975,58.8505,-2375.17,0,0
52953.6,57.6988,-2314.13,0,0
54255.225,56.7179,-2257.15,0,0
55556.85,55.7493,-2201.46,0,0
56858.475,54.7869,-2148.37,0,0
58160.1,54.5516,-2097.76,0,0
59461.7,54.2705,-2049.82,0,0
60763.3,54.409,-2004,0,0
62065,53.0306,-1959.94,0,0
63366.6,52.4428,-1916.37,0,0
64668.2,52.7709,-1874.09,0,0
65969.8,55.0235,-1836.28,0,0
67271.5,53.6147,-1799.97,0,0
68573.1,53.0611,-1764.04,0,0
69874.7,52.1106,-1730.14,0,0
71176.3,50.0145,-1695.33,0,0
72478,48.2197,-1661.82,0,0
73779.6,47.937,-1628.41,0,0
75081.2,48.4021,-1596.04,0,0
76382.825,48.8633,-1565.18,0,0
77684.45,50.0748,-1535.64,0,0
78986.075,51.7719,-1508.15,0,0
80287.7,50.8739,-1481.57,0,0
81589.325,50.2739,-1453.79,0,0
82890.95,50.8727,-1426.98,0,0
84192.575,52.4412,-1400.74,0,0
85494.2,54.2889,-1375.94,0,0
86795.825,55.4993,-1352.66,0,0
88097.45,55.932,-1329.46,0,0
89399.075,57.7385,-1304.54,0,0
90700.7,60.9119,-1281.61,0,0
92002.3,67.2409,-1260.4,0,0
93303.9,74.7339,-1242.51,0,0
94605.6,73.3561,-1236.37,0,0
95907.2,67.1012,-1217.09,0,0
97208.8,65.2817,-1196.75,0,0
98510.4,64.314,-1176.61,0,0
99812.1,63.4686,-1157.11,0,0
101114,63.0124,-1136.76,0,0
102415,63.438,-1114.96,0,0
103717,68.541,-1093.81,0,0
105019,75.1459,-1076.86,0,0
106320.175,80.5979,-1060.6,0,0
107621.8,87.0506,-1047.57,0,0
108923.425,91.5262,-1036.44,0,0
110225.05,94.0065,-1027.64,0,0
111526.675,94.1383,-1015.27,0,0
112828.3,97.5037,-1005.63,0,0
114129.925,96.3895,-998.633,0,0
115431.55,92.9395,-989.245,0,0
116733.175,88.476,-977.595,0,0
118034.8,83.7192,-963.709,0,0
119336.425,81.5688,-948.256,0,0
120638.05,81.5651,-933.845,0,0
121939.675,80.2341,-921.207,0,0
123241,78.8114,-906.299,0,0
124543,78.8266,-891.46,0,0
125845,79.281,-876.755,0,0
127146,80.3501,-862.267,0,0
128448,82.1745,-847.584,0,0
129749,85.0704,-833.476,0,0
131051,89.6388,-820.339,0,0
132353,93.8602,-809.336,0,0
133654,96.7424,-798.663,0,0
134956,99.9179,-787.853,0,0
136258,103.202,-777.122,0,0
137559,108.449,-767.726,0,0
138860.775,110.641,-762.058,0,0
140162.4,109.811,-753.626,0,0
141464.025,109.777,-743.696,0,0
142765.65,110.184,-732.86,0,0
144067.275,111.62,-721.27,0,0
145368.9,114.159,-709.836,0,0
146670.525,117.772,-700.241,0,0
147972.15,119.313,-692.184,0,0
149273.775,120.661,-681.762,0,0
150575.4,121.979,-672.789,0,0
151877.025,120.998,-661.688,0,0
153178.65,120.846,-646.924,0,0
154480,124.509,-630.711,0,0
155782,131.253,-613.872,0,0
157084,143.11,-598.112,0,0
158385,155.269,-589.429,0,0
159687,164.067,-577.622,0,0
160988,182.252,-565.472,0,0
162290,201.879,-565.577,0,0
163592,212.538,-567.314,0,0
164893,226.375,-566.932,0,0
166195,239.718,-573.51,0,0
167497,247.594,-584.138,0,0
168798,247.334,-597.147,0,0
170100,239.156,-605.158,0,0
171401.375,230.549,-603.888,0,0
172703.0,226.261,-599.155,0,0
174004.625,223.81,-595.633,0,0
175306.25,222.149,-591.444,0,0
176607.875,220.782,-588.984,0,0
177909.5,218.611,-585.043,0,0
179211.125,215.809,-584.33,0,0
180512.75,207.112,-581.938,0,0
181814.375,199.018,-572.855,0,0
183116.0,192.333,-561.59,0,0
184417.625,187.585,-547.436,0,0
185719.25,186.322,-532.022,0,0
187021,187.044,-517.248,0,0
188322,190.666,-501.897,0,0
189624,194.223,-488.485,0,0
190926,196.885,-473.39,0,0
192227,202.566,-456.363,0,0
193529,210.859,-438.589,0,0
194831,221.855,-421.774,0,0
196132,235.441,-404.783,0,0
197434,251.692,-389.109,0,0
198735,269.55,-374.57,0,0
200037,288.587,-359.088,0,0
201339,312.335,-343.481,0,0
202640.35,344.05,-326.2,0,0
203941.975,387.027,-315.974,0,0
205243.6,438.468,-321.874,0,0
206545.225,484.087,-347.016,0,0
207846.85,515.121,-382.713,0,0
209148.475,533.706,-422.526,0,0
210450.1,534.333,-462.688,0,0
211751.725,521.097,-482.186,0,0
213053.35,521.197,-483.89,0,0
214354.975,533.565,-494.543,0,0
215656.6,543.534,-509.443,0,0
216958.225,553.841,-524.808,0,0
218259.85,563.363,-541.737,0,0
219561,576.934,-556.667,0,0
220863,595.638,-580.09,0,0
222165,613.4,-615.824,0,0
223466,620.618,-662.499,0,0
224768,611.951,-711.466,0,0
226070,594.368,-756.34,0,0
227371,563.944,-799.258,0,0
228673,523.672,-832.83,0,0
229974,477.119,-851.296,0,0
231276,434.534,-856.277,0,0
232578,398.329,-853.8,0,0
233879,369.28,-847.178,0,0
235180.95,346.965,-842.581,0,0
236482.575,322.878,-839.29,0,0
237784.2,299.144,-833.662,0,0
239085.825,276.568,-825.034,0,0
240387.45,256.845,-814.279,0,0
241689.075,239.707,-802.994,0,0
242990.7,224.626,-790.662,0,0
244292.325,212.546,-779.051,0,0
245593.95,200.803,-768.61,0,0
246895.575,188.817,-757.684,0,0
248197.2,178.46,-745.003,0,0
249498.825,169.576,-732.427,0,0
250800,162.56,-719.677,0,0
252102,156.695,-707.956,0,0
253404,150.772,-695.667,0,0
254705,147.076,-682.622,0,0
256007,145.051,-670.994,0,0
257309,143.264,-659.723,0,0
258610,142.435,-648.053,0,0
259912,144.173,-636.301,0,0
261213,148.041,-626.809,0,0
262515,152.507,-619.485,0,0
263817,157.358,-613.776,0,0
265118,163.296,-609.629,0,0
266420,170.211,-609.593,0,0
267721.55,174.239,-615.205,0,0
269023.175,170.66,-622.793,0,0
270324.8,160.834,-625.809,0,0
271626.425,149.687,-622.086,0,0
272928.05,142.273,-613.492,0,0
274229.675,138.975,-604.64,0,0
275531.3,137.635,-596.462,0,0
276832.925,138.348,-589.2,0,0
278134.55,140.223,-584.153,0,0
279436.175,141.159,-581.284,0,0
280737.8,140.659,-578.193,0,0
282039.425,140.738,-575.58,0,0
283341,138.7,-573.3,0,0
284643,137.271,-569.576,0,0
285944,135.71,-566.756,0,0
287246,131.932,-562.666,0,0
288548,129.677,-554.955,0,0
289849,131.705,-547.535,0,0
291151,134.746,-544.129,0,0
292452,135.278,-541.56,0,0
293754,134.879,-537.743,0,0
295056,134.827,-532.423,0,0
296357,136.677,-526.058,0,0
297659,140.981,-520.868,0,0
298960.525,145.874,-517.402,0,0
300262.15,150.919,-514.786,0,0
301563.775,157.273,-513.144,0,0
302865.4,163.793,-514.889,0,0
304167.025,168.545,-517.497,0,0
305468.65,172.56,-521.34,0,0
306770.275,176.386,-526.177,0,0
308071.9,178.016,-533.532,0,0
309373.525,176.647,-540.655,0,0
310675.15,174.017,-546.824,0,0
311976.775,169.221,-552.676,0,0
313278.4,163.325,-557.013,0,0
314580,157.374,-559.724,0,0
315882,151.019,-562.468,0,0
317183,143.199,-564.371,0,0
318485,134.899,-564.386,0,0
319787,126.558,-562.687,0,0
321088,118.75,-559.637,0,0
322390,111.58,-554.723,0,0
323691,106.669,-548.404,0,0
324993,103.946,-542.645,0,0
326295,102.585,-537.951,0,0
327596,101.582,-534.886,0,0
328898,99.9955,-532.717,0,0
330200,97.7809,-531.035,0,0
331501.125,95.0153,-529.422,0,0
332802.75,91.6248,-527.549,0,0
334104.375,87.7865,-525.29,0,0
335406.0,83.6656,-522.161,0,0
336707.625,80.1044,-518.354,0,0
338009.25,76.9042,-514.392,0,0
339310.875,74.1851,-510.243,0,0
340612.5,71.7113,-506.065,0,0
341914.125,69.5487,-502.105,0,0
343215.75,67.4658,-498.179,0,0
344517.375,65.3305,-494.178,0,0
345819.0,63.1699,-490.028,0,0
347121,61.1563,-485.518,0,0
348422,59.7231,-480.755,0,0
349724,58.8148,-476.101,0,0
351025,58.0703,-471.722,0,0
352327,57.5631,-467.467,0,0
353629,57.1716,-463.435,0,0
354930,56.7438,-459.459,0,0
356232,56.4453,-455.542,0,0
357534,56.3012,-451.667,0,0
358835,56.1168,-447.787,0,0
360137,56.2584,-443.943,0,0
361438,56.5406,-440.309,0,0
362740.1,56.6107,-436.799,0,0
364041.725,56.844,-433.007,0,0
365343.35,57.5279,-429.362,0,0
366644.975,58.0351,-425.992,0,0
367946.6,58.2444,-422.25,0,0
369248.225,59.1559,-417.9,0,0
370549.85,60.9623,-413.659,0,0
371851.475,63.6204,-409.855,0,0
373153.1,66.9539,-407.149,0,0
374454.725,70.0425,-405.478,0,0
375756.35,72.788,-404.443,0,0
377057.975,75.2694,-403.822,0,0
378359.6,77.3569,-403.872,0,0
379661,78.6168,-403.945,0,0
380963,80.1118,-403.556,0,0
382264,82.146,-404.378,0,0
383566,82.9926,-406.655,0,0
384868,81.787,-408.764,0,0
386169,79.7172,-409.864,0,0
387471,77.0526,-410.102,0,0
388773,74.3136,-409.172,0,0
390074,72.2435,-407.527,0,0
391376,70.714,-406.204,0,0
392677,68.7667,-405.009,0,0
393979,66.3587,-403.375,0,0
395280.7,63.9792,-401.079,0,0
396582.325,61.7775,-398.221,0,0
397883.95,60.0631,-394.783,0,0
399185.575,59.0277,-391.127,0,0
400006.6,58.6583,-388.938,0,0