File: Accelerated corrosion test data/2025-10-22_06-00-04/sample_2.csv
Frequency (Hz),Impedance (ohms),Phase (Radians),Temperature (C),Humidity (%)
10000.0,233.294,-11465.4,0,0
11301.625,206.367,-10154.9,0,0
12603.25,185.969,-9116.85,0,0
13904.875,186.627,-8261.7,0,0
15206.5,169.683,-7572.43,0,0
16508.125,144.738,-6979.65,0,0
17809.75,134.851,-6470.4,0,0
19111.375,129.776,-6029.37,0,0
20413.0,119.272,-5644.48,0,0
21714.625,129.716,-5314.38,0,0
23016.25,113.664,-5017.96,0,0
24317.875,103.5,-4752.33,0,0
25619.5,98.6511,-4506.78,0,0
26921.1,95.4623,-4287.92,0,0
28222.7,90.7083,-4088,0,0
29524.4,93.3479,-3903.13,0,0
30826,88.5225,-3749.01,0,0
32127.6,82.8294,-3594.74,0,0
33429.2,80.1037,-3455.81,0,0
34730.9,76.0853,-3324.23,0,0
36032.5,73.4774,-3202.42,0,0
37334.1,71.3019,-3088.82,0,0
38635.7,69.1624,-2983.35,0,0
39937.4,66.9947,-2884.03,0,0
41239,65.7971,-2790.69,0,0
42540.6,64.7292,-2704.22,0,0
43842.225,63.2983,-2621.5,0,0
45143.85,61.9137,-2543.76,0,0
46445.475,61.65,-2471.3,0,0
47747.1,60.518,-2401.87,0,0
49048.725,60.6942,-2338,0,0
50350.35,57.9253,-2275.46,0,0
51651.975,56.6632,-2216.05,0,0
52953.6,55.107,-2158.52,0,0
54255.225,54.3251,-2103.62,0,0
55556.85,53.9246,-2051.51,0,0
56858.475,53.9019,-2001.57,0,0
58160.1,54.0725,-1954,0,0
59461.7,54.5584,-1907.97,0,0
60763.3,56.6274,-1865.34,0,0
62065,58.944,-1826.95,0,0
63366.6,55.6578,-1790.08,0,0
64668.2,52.6689,-1751.87,0,0
65969.8,50.8393,-1712.52,0,0
67271.5,51.2178,-1675.17,0,0
68573.1,53.78,-1641.06,0,0
69874.7,55.5663,-1610.4,0,0
71176.3,52.3457,-1582.56,0,0
72478,47.8167,-1552.06,0,0
73779.6,45.1859,-1518.68,0,0
75081.2,45.1746,-1486.31,0,0
76382.825,46.961,-1455.8,0,0
77684.45,49.8159,-1427.41,0,0
78986.075,52.901,-1403.41,0,0
80287.7,51.8618,-1381.72,0,0
81589.325,49.057,-1356.51,0,0
82890.95,47.9792,-1330.74,0,0
84192.575,48.6715,-1305.94,0,0
85494.2,49.2617,-1282.47,0,0
86795.825,50.4332,-1260.07,0,0
88097.45,51.025,-1238.81,0,0
89399.075,51.3119,-1217.42,0,0
90700.7,51.1945,-1197.2,0,0
92002.3,52.9265,-1175.72,0,0
93303.9,54.8055,-1156.87,0,0
94605.6,55.3618,-1140.52,0,0
95907.2,54.4077,-1120.69,0,0
97208.8,57.7782,-1103.46,0,0
98510.4,57.2526,-1089.6,0,0
99812.1,53.4106,-1074.45,0,0
101114,50.4336,-1057.2,0,0
102415,46.8725,-1037.18,0,0
103717,46.057,-1015.96,0,0
105019,49.5217,-995.682,0,0
106320.175,54.088,-978.307,0,0
107621.8,58.0604,-966.477,0,0
108923.425,56.2816,-954.744,0,0
110225.05,53.0283,-939.459,0,0
111526.675,51.6175,-921.42,0,0
112828.3,52.1111,-904.026,0,0
114129.925,53.7618,-886.847,0,0
115431.55,56.3795,-870.16,0,0
116733.175,59.8789,-854.616,0,0
118034.8,63.7842,-840.205,0,0
119336.425,68.1871,-828.009,0,0
120638.05,70.769,-817.811,0,0
121939.675,70.4539,-807.188,0,0
123241,69.4757,-794.599,0,0
124543,68.8929,-781.257,0,0
125845,68.362,-766.553,0,0
127146,69.5963,-751.091,0,0
128448,72.2003,-736.522,0,0
129749,75.0909,-722.934,0,0
131051,78.0767,-710.206,0,0
132353,79.486,-698.003,0,0
133654,80.9835,-684.478,0,0
134956,82.0591,-670.775,0,0
136258,84.2069,-655.681,0,0
137559,87.2104,-640.524,0,0
138860.775,90.4364,-625.787,0,0
140162.4,93.3942,-609.712,0,0
141464.025,99.0396,-591.144,0,0
142765.65,108.432,-574.125,0,0
144067.275,117.917,-558.616,0,0
145368.9,128.759,-543.656,0,0
146670.525,140.728,-529.145,0,0
147972.15,154.847,-514.319,0,0
149273.775,174.777,-499.335,0,0
150575.4,202.878,-493.536,0,0
151877.025,226.944,-502.7,0,0
153178.65,237.947,-518.464,0,0
154480,237.545,-529.55,0,0
155782,235.314,-533.08,0,0
157084,230.223,-534.814,0,0
158385,227.077,-530.661,0,0
159687,224.927,-525.274,0,0
160988,225.223,-517.912,0,0
162290,233.406,-515.286,0,0
163592,228.89,-521.493,0,0
164893,215.506,-518.716,0,0
166195,202.97,-505.818,0,0
167497,195.773,-488.293,0,0
168798,190.833,-467.447,0,0
170100,191.603,-444.099,0,0
171401.375,196.069,-421.718,0,0
172703.0,204.021,-397.981,0,0
174004.625,215.689,-374.267,0,0
175306.25,233.615,-350.811,0,0
176607.875,257.385,-331.346,0,0
177909.5,285.021,-320.356,0,0
179211.125,307.837,-319.349,0,0
180512.75,317.737,-319.308,0,0
181814.375,323.57,-302.979,0,0
183116.0,339.734,-284.118,0,0
184417.625,362.6,-260.785,0,0
185719.25,394.719,-242.579,0,0
187021,431.728,-227.722,0,0
188322,473.838,-220.108,0,0
189624,512.44,-218.011,0,0
190926,556.308,-210.442,0,0
192227,615.526,-208.245,0,0
193529,686.453,-222.468,0,0
194831,755.153,-264.619,0,0
196132,809.05,-322.241,0,0
197434,851.742,-385.343,0,0
198735,885.835,-464.116,0,0
200037,897.745,-547.416,0,0
201339,892.153,-635.526,0,0
202640.35,859.295,-712.343,0,0
203941.975,818.164,-777.144,0,0
205243.6,768.231,-831.592,0,0
206545.225,703.239,-864.664,0,0
207846.85,647.266,-877.056,0,0
209148.475,609.548,-882.862,0,0
210450.1,569.878,-897.549,0,0
211751.725,521.449,-904.088,0,0
213053.35,478.42,-894.268,0,0
214354.975,444.426,-880.798,0,0
215656.6,416.523,-865.638,0,0
216958.225,394.843,-847.69,0,0
218259.85,379.685,-831.144,0,0
219561,368.601,-815.909,0,0
220863,361.12,-803.039,0,0
222165,357.659,-792.469,0,0
223466,354.711,-786.503,0,0
224768,352.333,-781.972,0,0
226070,349.492,-779.613,0,0
227371,348.509,-778.86,0,0
228673,348.095,-783.491,0,0
229974,341.845,-793.234,0,0
231276,330.129,-800.333,0,0
232578,316.148,-806.709,0,0
233879,298.871,-809.801,0,0
235180.95,281.277,-809.416,0,0
236482.575,264.519,-806.904,0,0
237784.2,247.129,-802.295,0,0
239085.825,231.78,-794.966,0,0
240387.45,217.234,-786.672,0,0
241689.075,204.56,-776.687,0,0
242990.7,194.626,-765.992,0,0
244292.325,187.069,-757.093,0,0
245593.95,179.294,-751.008,0,0
246895.575,167.491,-745.69,0,0
248197.2,153.877,-736.09,0,0
249498.825,141.548,-723.358,0,0
250800,131.14,-707.731,0,0
252102,124.853,-690.254,0,0
253404,121.749,-673.943,0,0
254705,120.024,-658.235,0,0
256007,120.634,-641.848,0,0
257309,124.316,-627.382,0,0
258610,129.435,-614.359,0,0
259912,136.275,-603.123,0,0
261213,144.69,-594.303,0,0
262515,153.31,-588.489,0,0
263817,161.086,-584.87,0,0
265118,168.448,-582.952,0,0
266420,174.242,-582.981,0,0
267721.55,178.546,-583.518,0,0
269023.175,181.268,-584.843,0,0
270324.8,181.954,-584.665,0,0
271626.425,183.551,-581.941,0,0
272928.05,188.058,-578.609,0,0
274229.675,196.602,-576.763,0,0
275531.3,209.115,-582.224,0,0
276832.925,215.888,-597.707,0,0
278134.55,212.202,-613.703,0,0
279436.175,202.371,-625.448,0,0
280737.8,189.984,-632.319,0,0
282039.425,177.514,-636.262,0,0
283341,162.26,-636.925,0,0
284643,150.017,-631.919,0,0
285944,137.734,-627.87,0,0
287246,123.881,-618.169,0,0
288548,114.7,-601.153,0,0
289849,116.146,-581.887,0,0
291151,126.728,-568.209,0,0
292452,142.177,-565.495,0,0
293754,149.75,-574.398,0,0
295056,146.511,-579.602,0,0
296357,148.09,-577.841,0,0
297659,151.807,-587.691,0,0
298960.525,142.876,-596.623,0,0
300262.15,131.866,-598.198,0,0
301563.775,123.529,-595.272,0,0
302865.4,118.66,-592.347,0,0
304167.025,114.078,-592.048,0,0
305468.65,106.865,-592.016,0,0
306770.275,98.308,-589.365,0,0
308071.9,90.6345,-584.824,0,0
309373.525,83.9677,-579.246,0,0
310675.15,78.2568,-573.163,0,0
311976.775,73.4073,-566.638,0,0
313278.4,69.5103,-559.951,0,0
314580,66.2891,-553.363,0,0
315882,63.6689,-546.984,0,0
317183,61.3963,-540.494,0,0
318485,59.8257,-534.138,0,0
319787,58.6685,-528.218,0,0
321088,57.522,-522.502,0,0
322390,56.5824,-516.675,0,0
323691,55.8626,-510.579,0,0
324993,55.8936,-503.899,0,0
326295,58.0033,-497.323,0,0
327596,61.4411,-493.151,0,0
328898,63.6897,-490.61,0,0
330200,65.7688,-488.708,0,0
331501.125,67.085,-488.017,0,0
332802.75,66.6608,-488.182,0,0
334104.375,64.2424,-487.287,0,0
335406.0,61.7627,-484.791,0,0
336707.625,59.6474,-481.644,0,0
338009.25,57.8543,-478.07,0,0
339310.875,56.2693,-474.23,0,0
340612.5,54.9604,-470.057,0,0
341914.125,54.0905,-465.66,0,0
343215.75,53.6561,-461.133,0,0
344517.375,53.7462,-456.54,0,0
345819.0,54.3427,-452.159,0,0
347121,55.3826,-448.067,0,0
348422,56.6992,-444.199,0,0
349724,58.465,-440.757,0,0
351025,60.4003,-438.081,0,0
352327,61.9347,-436.029,0,0
353629,63.0469,-433.939,0,0
354930,64.2757,-431.794,0,0
356232,65.5516,-429.72,0,0
357534,67.302,-427.833,0,0
358835,69.2425,-426.674,0,0
360137,70.7382,-426.428,0,0
361438,71.4543,-426.494,0,0
362740.1,71.5951,-426.591,0,0
364041.725,71.1677,-426.548,0,0
365343.35,70.2766,-425.955,0,0
366644.975,69.4592,-424.929,0,0
367946.6,69.018,-423.565,0,0
369248.225,69.0622,-422.703,0,0
370549.85,68.3933,-422.53,0,0
371851.475,67.1481,-421.775,0,0
373153.1,66.2762,-420.897,0,0
374454.725,65.0597,-420.246,0,0
375756.35,63.4133,-419.303,0,0
377057.975,61.8683,-418.02,0,0
378359.6,60.3314,-417.115,0,0
379661,57.4759,-416.022,0,0
380963,54.8822,-412.493,0,0
382264,54.8485,-409.798,0,0
383566,53.6471,-408.668,0,0
384868,51.4813,-406.827,0,0
386169,49.3465,-404.197,0,0
387471,47.5978,-400.999,0,0
388773,46.18,-397.486,0,0
390074,45.763,-393.737,0,0
391376,46.0072,-390.993,0,0
392677,45.4568,-389.267,0,0
393979,43.771,-387.019,0,0
395280.7,41.9517,-383.53,0,0
396582.325,41.0403,-379.291,0,0
397883.95,40.9439,-375.036,0,0
399185.575,41.5201,-371.17,0,0
400006.6,42.0085,-368.945,0,0