File: Accelerated corrosion test data/2025-10-22_06-00-04/sample_7.csv
Frequency (Hz),Impedance (ohms),Phase (Radians),Temperature (C),Humidity (%)
10000.0,272.514,-12104.2,0,0
11301.625,245.821,-10707,0,0
12603.25,257.682,-9663.28,0,0
13904.875,207.836,-8763.52,0,0
15206.5,195.393,-8021.41,0,0
16508.125,170.631,-7380.94,0,0
17809.75,165.99,-6825.1,0,0
19111.375,186.466,-6386.79,0,0
20413.0,166.811,-5981.32,0,0
21714.625,155.434,-5646.07,0,0
23016.25,129.095,-5323.81,0,0
24317.875,121.554,-5030.88,0,0
25619.5,117.284,-4766.73,0,0
26921.1,120.654,-4521.16,0,0
28222.7,177.941,-4295.81,0,0
29524.4,139.909,-4184.2,0,0
30826,131.331,-3994.07,0,0
32127.6,117.217,-3845.95,0,0
33429.2,100.748,-3695.49,0,0
34730.9,91.2428,-3549.58,0,0
36032.5,87.5697,-3415.75,0,0
37334.1,85.2797,-3291.84,0,0
38635.7,85.9043,-3174.08,0,0
39937.4,99.5615,-3074.4,0,0
41239,86.6473,-2988.51,0,0
42540.6,79.1494,-2892.18,0,0
43842.225,78.2751,-2803.51,0,0
45143.85,80.0356,-2725.2,0,0
46445.475,76.5833,-2651.71,0,0
47747.1,69.9567,-2576.32,0,0
49048.725,67.2066,-2505.65,0,0
50350.35,65.3438,-2438.63,0,0
51651.975,63.7968,-2374.8,0,0
52953.6,63.1244,-2314.2,0,0
54255.225,61.7447,-2257.76,0,0
55556.85,60.2553,-2202.76,0,0
56858.475,59.4355,-2150.36,0,0
58160.1,58.4966,-2100.1,0,0
59461.7,58.5522,-2052.55,0,0
60763.3,58.186,-2008.56,0,0
62065,56.0801,-1965.05,0,0
63366.6,55.0355,-1922.33,0,0
64668.2,54.1315,-1881.71,0,0
65969.8,54.3479,-1843.22,0,0
67271.5,52.5313,-1806.31,0,0
68573.1,51.2775,-1769.5,0,0
69874.7,50.7411,-1734.27,0,0
71176.3,50.6118,-1700.63,0,0
72478,49.4543,-1668.32,0,0
73779.6,48.6856,-1636.44,0,0
75081.2,48.1378,-1605.6,0,0
76382.825,47.5997,-1575.91,0,0
77684.45,47.3504,-1547.03,0,0
78986.075,47.0547,-1519.04,0,0
80287.7,46.9061,-1492.08,0,0
81589.325,46.4171,-1465.81,0,0
82890.95,46.3456,-1439.99,0,0
84192.575,46.2699,-1415.05,0,0
85494.2,46.3645,-1391.08,0,0
86795.825,46.3163,-1367.61,0,0
88097.45,46.4965,-1344.94,0,0
89399.075,45.8541,-1322.67,0,0
90700.7,45.9323,-1300.25,0,0
92002.3,46.1589,-1278.55,0,0
93303.9,46.9144,-1256.68,0,0
94605.6,50.657,-1237.82,0,0
95907.2,48.8847,-1220.27,0,0
97208.8,48.4453,-1200.05,0,0
98510.4,49.0054,-1180.85,0,0
99812.1,48.5723,-1162.25,0,0
101114,50.1293,-1142.86,0,0
102415,52.0713,-1124.45,0,0
103717,54.5795,-1107.88,0,0
105019,55.6908,-1093.23,0,0
106320.175,55.1522,-1077.23,0,0
107621.8,55.7253,-1060.61,0,0
108923.425,56.8765,-1044.2,0,0
110225.05,57.4813,-1027.36,0,0
111526.675,60.8054,-1010.19,0,0
112828.3,65.2447,-993.752,0,0
114129.925,70.7342,-979.391,0,0
115431.55,77.757,-966.625,0,0
116733.175,86.7342,-958.476,0,0
118034.8,91.0797,-954.258,0,0
119336.425,93.568,-953.753,0,0
120638.05,85.8179,-953.476,0,0
121939.675,74.2845,-943.084,0,0
123241,67.4026,-929.954,0,0
124543,62.1869,-916.037,0,0
125845,57.5996,-902.004,0,0
127146,53.7704,-886.751,0,0
128448,52.4442,-871.493,0,0
129749,50.9854,-857.232,0,0
131051,49.346,-842.718,0,0
132353,48.4003,-827.427,0,0
133654,48.9877,-811.523,0,0
134956,52.3499,-796.898,0,0
136258,56.5857,-784.744,0,0
137559,55.9073,-777.266,0,0
138860.775,53.5802,-764.349,0,0
140162.4,53.2508,-750.159,0,0
141464.025,53.1388,-736.635,0,0
142765.65,54.537,-721.678,0,0
144067.275,57.4978,-708.457,0,0
145368.9,58.9823,-696.451,0,0
146670.525,60.4313,-683.279,0,0
147972.15,61.6444,-671.147,0,0
149273.775,61.6487,-658.084,0,0
150575.4,61.4593,-642.684,0,0
151877.025,63.0342,-625.042,0,0
153178.65,66.8133,-607.113,0,0
154480,72.2104,-588.821,0,0
155782,80.0912,-570.076,0,0
157084,90.8795,-552.512,0,0
158385,104.244,-538.494,0,0
159687,113.989,-529.263,0,0
160988,117.558,-515.607,0,0
162290,124.536,-492.478,0,0
163592,140.159,-467.35,0,0
164893,162.215,-445.487,0,0
166195,189.091,-419.337,0,0
167497,233.03,-396.079,0,0
168798,294.112,-389.329,0,0
170100,357.429,-410.865,0,0
171401.375,411.831,-459.54,0,0
172703.0,441.953,-532.056,0,0
174004.625,420.098,-613.762,0,0
175306.25,360.185,-641.164,0,0
176607.875,331.239,-630.739,0,0
177909.5,332.891,-625.489,0,0
179211.125,338.498,-661.388,0,0
180512.75,309.029,-687.175,0,0
181814.375,269.714,-700.815,0,0
183116.0,221.024,-697.9,0,0
184417.625,190.081,-672.872,0,0
185719.25,169.358,-650.527,0,0
187021,155.15,-622.481,0,0
188322,151.19,-599.309,0,0
189624,142.417,-581.668,0,0
190926,135.321,-557.326,0,0
192227,134.814,-532.405,0,0
193529,136.913,-506.418,0,0
194831,144.075,-482.517,0,0
196132,154.638,-461.71,0,0
197434,166.4,-443.455,0,0
198735,175.848,-427.95,0,0
200037,185.119,-408.541,0,0
201339,198.615,-386.562,0,0
202640.35,217.711,-363.032,0,0
203941.975,243.754,-341.691,0,0
205243.6,277.143,-322.735,0,0
206545.225,318.882,-317.788,0,0
207846.85,349.419,-317.97,0,0
209148.475,386.833,-310.265,0,0
210450.1,445.631,-314.548,0,0
211751.725,500.724,-357.066,0,0
213053.35,523.807,-408.584,0,0
214354.975,536.781,-453.826,0,0
215656.6,538.77,-499.738,0,0
216958.225,535.945,-544.651,0,0
218259.85,516.213,-590.32,0,0
219561,473.244,-620.833,0,0
220863,435.275,-621.291,0,0
222165,414.667,-610.733,0,0
223466,407.32,-603.536,0,0
224768,401.875,-599.443,0,0
226070,403.585,-592.018,0,0
227371,413.826,-593.522,0,0
228673,426.44,-605.337,0,0
229974,430.421,-626.519,0,0
231276,428.062,-652.681,0,0
232578,418.423,-677.937,0,0
233879,395.954,-709.748,0,0
235180.95,354.397,-724.321,0,0
236482.575,317.317,-719.811,0,0
237784.2,286.068,-706.482,0,0
239085.825,270.408,-682.939,0,0
240387.45,268.558,-670.649,0,0
241689.075,257.05,-669.242,0,0
242990.7,239.33,-655.711,0,0
244292.325,233.039,-635.092,0,0
245593.95,237.854,-624.731,0,0
246895.575,233.76,-619.622,0,0
248197.2,228.605,-609.261,0,0
249498.825,226.761,-595.297,0,0
250800,231.015,-581.316,0,0
252102,240.442,-570.523,0,0
253404,255.156,-566.775,0,0
254705,266.41,-573.198,0,0
256007,269.716,-583.082,0,0
257309,265.663,-590.661,0,0
258610,260.151,-591.758,0,0
259912,256.985,-592.848,0,0
261213,251.538,-591.457,0,0
262515,249.994,-585.908,0,0
263817,255.325,-583.465,0,0
265118,259.251,-587.937,0,0
266420,259.819,-593.069,0,0
267721.55,258.561,-601.173,0,0
269023.175,250.519,-606.579,0,0
270324.8,244.292,-604.427,0,0
271626.425,248.526,-602.66,0,0
272928.05,257.596,-618.018,0,0
274229.675,246.646,-643.944,0,0
275531.3,216.988,-660.959,0,0
276832.925,180.529,-657.653,0,0
278134.55,153.837,-637.752,0,0
279436.175,141.419,-613.957,0,0
280737.8,137.531,-594.032,0,0
282039.425,136.435,-580.385,0,0
283341,133.27,-566.246,0,0
284643,134.914,-549.154,0,0
285944,142.422,-536.8,0,0
287246,149.417,-530.315,0,0
288548,152.179,-526.292,0,0
289849,152.967,-519.017,0,0
291151,156.701,-509.027,0,0
292452,163.329,-501.102,0,0
293754,171.237,-494.195,0,0
295056,180.335,-488.508,0,0
296357,191.491,-484.197,0,0
297659,204.875,-481.895,0,0
298960.525,219.898,-483.787,0,0
300262.15,236.634,-489,0,0
301563.775,255.674,-502.187,0,0
302865.4,269.877,-528.893,0,0
304167.025,266.675,-560.894,0,0
305468.65,251.911,-585.822,0,0
306770.275,229.935,-602.904,0,0
308071.9,206.457,-610.493,0,0
309373.525,183.58,-610.682,0,0
310675.15,165.695,-604.303,0,0
311976.775,152.743,-597.628,0,0
313278.4,140.978,-591.031,0,0
314580,130.447,-582.352,0,0
315882,123.286,-572.21,0,0
317183,119.344,-563.386,0,0
318485,116.285,-555.819,0,0
319787,114.301,-549.245,0,0
321088,112.781,-543.921,0,0
322390,111.196,-539.386,0,0
323691,109.517,-535.466,0,0
324993,107.571,-531.554,0,0
326295,106.482,-527.705,0,0
327596,105.646,-525.52,0,0
328898,103.354,-524.145,0,0
330200,100.225,-522.501,0,0
331501.125,96.4763,-520.871,0,0
332802.75,91.486,-518.736,0,0
334104.375,86.0068,-515.08,0,0
335406.0,80.9895,-510.43,0,0
336707.625,76.2908,-504.902,0,0
338009.25,72.3392,-498.572,0,0
339310.875,69.3639,-492.001,0,0
340612.5,66.8204,-485.33,0,0
341914.125,65.0218,-478.381,0,0
343215.75,64.2646,-471.316,0,0
344517.375,64.6773,-464.652,0,0
345819.0,65.8023,-459.311,0,0
347121,66.4311,-455.475,0,0
348422,65.5303,-451.607,0,0
349724,64.3878,-446.503,0,0
351025,63.6431,-440.816,0,0
352327,64.0456,-434.262,0,0
353629,65.9783,-428.481,0,0
354930,68.5089,-423.919,0,0
356232,70.9153,-420.937,0,0
357534,71.526,-419.033,0,0
358835,70.3335,-415.797,0,0
360137,69.7,-410.53,0,0
361438,70.3652,-404.589,0,0
362740.1,72.5095,-398.975,0,0
364041.725,75.3495,-393.947,0,0
365343.35,78.9951,-389.712,0,0
366644.975,82.7463,-386.922,0,0
367946.6,86.0436,-384.524,0,0
369248.225,89.3373,-382.976,0,0
370549.85,91.8591,-382.637,0,0
371851.475,92.0771,-382.227,0,0
373153.1,91.9481,-379.62,0,0
374454.725,93.1345,-376.29,0,0
375756.35,95.1249,-373.679,0,0
377057.975,96.6018,-371.669,0,0
378359.6,97.52,-368.975,0,0
379661,99.3576,-365.651,0,0
380963,101.455,-362.886,0,0
382264,103.791,-359.935,0,0
383566,106.643,-357.357,0,0
384868,109.36,-355.001,0,0
386169,112.224,-352.875,0,0
387471,114.675,-350.727,0,0
388773,117.465,-347.127,0,0
390074,122.562,-344.007,0,0
391376,128.014,-342.29,0,0
392677,133.517,-341.832,0,0
393979,138.038,-341.731,0,0
395280.7,142.821,-340.335,0,0
396582.325,149.711,-338.833,0,0
397883.95,159.529,-338.744,0,0
399185.575,172.08,-343.25,0,0
400006.6,179.608,-350.003,0,0