File: Accelerated corrosion test data/2025-10-22_06-00-04/sample_6.csv
Frequency (Hz),Impedance (ohms),Phase (Radians),Temperature (C),Humidity (%)
10000.0,4117.05,-6727.88,0,0
11301.625,3490.64,-6310.58,0,0
12603.25,2995.04,-5917.42,0,0
13904.875,2597.39,-5562.26,0,0
15206.5,2273.01,-5234.29,0,0
16508.125,2006.42,-4936.21,0,0
17809.75,1784.84,-4665.35,0,0
19111.375,1599.9,-4419.09,0,0
20413.0,1442.13,-4195.35,0,0
21714.625,1306.85,-3990.29,0,0
23016.25,1191.7,-3799.47,0,0
24317.875,1093.58,-3631.12,0,0
25619.5,1006.75,-3473.76,0,0
26921.1,930.36,-3327.11,0,0
28222.7,862.405,-3195.07,0,0
29524.4,800.248,-3066.88,0,0
30826,752.919,-2952.18,0,0
32127.6,702.831,-2844.54,0,0
33429.2,663.282,-2746.15,0,0
34730.9,619.878,-2652.94,0,0
36032.5,582.923,-2564.15,0,0
37334.1,550.253,-2477.75,0,0
38635.7,522.331,-2396.44,0,0
39937.4,500.875,-2321.1,0,0
41239,479.073,-2255.15,0,0
42540.6,454.836,-2192.03,0,0
43842.225,434.982,-2124.66,0,0
45143.85,420.975,-2065.45,0,0
46445.475,408.38,-2012.4,0,0
47747.1,394.597,-1962.36,0,0
49048.725,381.92,-1918.07,0,0
50350.35,362.689,-1877.77,0,0
51651.975,342.505,-1830.71,0,0
52953.6,328.54,-1783.99,0,0
54255.225,314.902,-1740.39,0,0
55556.85,305.48,-1698.98,0,0
56858.475,295.832,-1657.39,0,0
58160.1,291.133,-1622.77,0,0
59461.7,280.519,-1592.15,0,0
60763.3,267.754,-1559.48,0,0
62065,254.693,-1523.55,0,0
63366.6,251.366,-1486.36,0,0
64668.2,245.097,-1459.92,0,0
65969.8,237.852,-1429.18,0,0
67271.5,231.495,-1402.44,0,0
68573.1,224.087,-1375.48,0,0
69874.7,216.897,-1349.22,0,0
71176.3,209.478,-1323.16,0,0
72478,202.966,-1296.97,0,0
73779.6,197.117,-1271.83,0,0
75081.2,191.654,-1247.53,0,0
76382.825,185.849,-1223.77,0,0
77684.45,180.339,-1200.04,0,0
78986.075,175.295,-1176.53,0,0
80287.7,170.641,-1153.16,0,0
81589.325,167.084,-1129.76,0,0
82890.95,164.29,-1107.42,0,0
84192.575,161.982,-1085.13,0,0
85494.2,161.28,-1063.3,0,0
86795.825,161.196,-1043.46,0,0
88097.45,161.203,-1024.69,0,0
89399.075,162.542,-1006.27,0,0
90700.7,163.285,-992.367,0,0
92002.3,160.284,-976.725,0,0
93303.9,158.575,-961.167,0,0
94605.6,157.69,-944.82,0,0
95907.2,157.822,-929.639,0,0
97208.8,156.819,-916.956,0,0
98510.4,154.396,-902.485,0,0
99812.1,154.013,-888.319,0,0
101114,153.447,-876.5,0,0
102415,150.718,-864.841,0,0
103717,147.258,-853.649,0,0
105019,141.555,-842.378,0,0
106320.175,132.747,-826.633,0,0
107621.8,129.112,-805.183,0,0
108923.425,130.826,-785.542,0,0
110225.05,134.364,-768.674,0,0
111526.675,140.588,-754.093,0,0
112828.3,146.051,-746.165,0,0
114129.925,145.851,-738.318,0,0
115431.55,145.095,-728.303,0,0
116733.175,144.939,-721.994,0,0
118034.8,137.554,-712.785,0,0
119336.425,132.744,-697.114,0,0
120638.05,132.93,-680.769,0,0
121939.675,135.743,-669.258,0,0
123241,134.658,-658.218,0,0
124543,134.153,-645.977,0,0
125845,133.435,-633.716,0,0
127146,132.941,-620.413,0,0
128448,133.887,-606.025,0,0
129749,136.742,-592.783,0,0
131051,139.631,-580.572,0,0
132353,142.897,-568.594,0,0
133654,146.711,-557.501,0,0
134956,150.351,-546.969,0,0
136258,154.566,-537.214,0,0
137559,158.446,-529.18,0,0
138860.775,160.801,-521.525,0,0
140162.4,161.723,-513.568,0,0
141464.025,163.008,-504.631,0,0
142765.65,162.899,-496.195,0,0
144067.275,163.241,-484.61,0,0
145368.9,165.9,-474.321,0,0
146670.525,167.128,-465.212,0,0
147972.15,166.572,-455.154,0,0
149273.775,166.533,-442.25,0,0
150575.4,168.454,-428.258,0,0
151877.025,171.911,-413.958,0,0
153178.65,178.52,-400.486,0,0
154480,183.505,-389.944,0,0
155782,188.381,-376.739,0,0
157084,196.301,-365.56,0,0
158385,201.71,-356.868,0,0
159687,205.943,-345.917,0,0
160988,210.4,-334.43,0,0
162290,215.324,-321.695,0,0
163592,221.316,-308.952,0,0
164893,226.707,-296.678,0,0
166195,231.231,-282.068,0,0
167497,237.42,-265.048,0,0
168798,246.402,-247.15,0,0
170100,256.582,-229.648,0,0
171401.375,267.554,-211.6,0,0
172703.0,279.438,-191.641,0,0
174004.625,293.461,-169.569,0,0
175306.25,311.261,-145.62,0,0
176607.875,333.206,-120.635,0,0
177909.5,360.213,-95.3113,0,0
179211.125,392.758,-70.6405,0,0
180512.75,431.004,-49.0187,0,0
181814.375,472.416,-29.4258,0,0
183116.0,518.155,-10.9562,0,0
184417.625,570.721,7.63423,0,0
185719.25,633.557,24.4411,0,0
187021,710.69,35.6983,0,0
188322,803.929,33.5747,0,0
189624,911.382,7.54192,0,0
190926,1021.19,-51.4664,0,0
192227,1120.35,-143.818,0,0
193529,1196.55,-266.003,0,0
194831,1239.35,-408.444,0,0
196132,1242.08,-558.542,0,0
197434,1205.33,-700.151,0,0
198735,1137.88,-820.235,0,0
200037,1051.87,-913.155,0,0
201339,956.598,-980.392,0,0
202640.35,859.636,-1021.19,0,0
203941.975,768.932,-1040.41,0,0
205243.6,688.481,-1044.68,0,0
206545.225,617.674,-1039.5,0,0
207846.85,555.703,-1027.28,0,0
209148.475,502.196,-1010.74,0,0
210450.1,455.987,-992.416,0,0
211751.725,414.309,-972.39,0,0
213053.35,378.074,-949.748,0,0
214354.975,347.207,-927.018,0,0
215656.6,320.344,-903.391,0,0
216958.225,297.791,-880.272,0,0
218259.85,278.352,-857.9,0,0
219561,261.381,-836.11,0,0
220863,246.854,-814.492,0,0
222165,234.357,-793.282,0,0
223466,224.141,-772.027,0,0
224768,216.567,-751.045,0,0
226070,211.778,-731.063,0,0
227371,209.05,-713.126,0,0
228673,206.731,-696.765,0,0
229974,205.285,-680.597,0,0
231276,204.982,-664.576,0,0
232578,206.451,-649.107,0,0
233879,209.812,-634.336,0,0
235180.95,215.151,-620.714,0,0
236482.575,222.205,-608.533,0,0
237784.2,231.114,-598.37,0,0
239085.825,241.435,-590.511,0,0
240387.45,252.99,-585.52,0,0
241689.075,264.866,-583.785,0,0
242990.7,276.485,-585.337,0,0
244292.325,287.43,-590.522,0,0
245593.95,295.543,-599.651,0,0
246895.575,299.275,-610.121,0,0
248197.2,300.161,-620.123,0,0
249498.825,299.2,-628.993,0,0
250800,299.097,-637.902,0,0
252102,297.263,-650.302,0,0
253404,290.946,-663.829,0,0
254705,279.758,-676.347,0,0
256007,264.785,-685.481,0,0
257309,248.385,-690.263,0,0
258610,232.356,-691.488,0,0
259912,217.263,-690.243,0,0
261213,203.215,-687.02,0,0
262515,190.513,-682.267,0,0
263817,179.28,-676.623,0,0
265118,169.178,-670.459,0,0
266420,160.189,-663.871,0,0
267721.55,152.113,-657.27,0,0
269023.175,144.74,-650.597,0,0
270324.8,138.041,-643.801,0,0
271626.425,131.849,-637.047,0,0
272928.05,126.258,-630.333,0,0
274229.675,121.055,-623.637,0,0
275531.3,116.289,-616.936,0,0
276832.925,111.916,-610.225,0,0
278134.55,107.929,-603.508,0,0
279436.175,104.421,-596.645,0,0
280737.8,101.861,-589.708,0,0
282039.425,99.9951,-583.896,0,0
283341,97.7536,-578.514,0,0
284643,95.5627,-573.016,0,0
285944,93.9499,-567.671,0,0
287246,92.5001,-563.257,0,0
288548,90.2918,-559.097,0,0
289849,88.0613,-554.604,0,0
291151,86.0607,-549.928,0,0
292452,84.1727,-545.627,0,0
293754,82.0341,-541.487,0,0
295056,79.8541,-537.126,0,0
296357,77.5396,-532.278,0,0
297659,75.8842,-527.226,0,0
298960.525,74.9673,-522.569,0,0
300262.15,73.9039,-518.645,0,0
301563.775,72.4997,-514.663,0,0
302865.4,71.0572,-510.623,0,0
304167.025,69.7688,-506.36,0,0
305468.65,68.7667,-502.332,0,0
306770.275,67.7779,-498.595,0,0
308071.9,66.6152,-494.854,0,0
309373.525,65.5154,-491.102,0,0
310675.15,64.4646,-487.375,0,0
311976.775,63.521,-483.787,0,0
313278.4,62.5261,-480.182,0,0
314580,61.5308,-476.595,0,0
315882,60.5413,-473.014,0,0
317183,59.7386,-469.473,0,0
318485,58.8207,-466.001,0,0
319787,58.0541,-462.429,0,0
321088,57.3075,-459.016,0,0
322390,56.6527,-455.555,0,0
323691,55.9956,-452.265,0,0
324993,55.3205,-449.041,0,0
326295,54.6346,-445.737,0,0
327596,53.9306,-442.448,0,0
328898,53.3089,-439.101,0,0
330200,52.8202,-435.823,0,0
331501.125,52.3981,-432.545,0,0
332802.75,52.0079,-429.434,0,0
334104.375,51.5867,-426.303,0,0
335406.0,51.2289,-423.157,0,0
336707.625,50.9009,-420.127,0,0
338009.25,50.601,-417.043,0,0
339310.875,50.2301,-414.077,0,0
340612.5,49.9831,-411.012,0,0
341914.125,49.7817,-407.951,0,0
343215.75,49.7715,-405.028,0,0
344517.375,49.6595,-402.229,0,0
345819.0,49.5102,-399.387,0,0
347121,49.4433,-396.483,0,0
348422,49.4934,-393.67,0,0
349724,49.6488,-390.976,0,0
351025,49.8002,-388.346,0,0
352327,49.9003,-385.864,0,0
353629,50.0299,-383.478,0,0
354930,50.0857,-381.211,0,0
356232,50.0344,-378.989,0,0
357534,49.8549,-376.722,0,0
358835,49.7014,-374.365,0,0
360137,49.5022,-372.01,0,0
361438,49.2773,-369.703,0,0
362740.1,49.1052,-367.264,0,0
364041.725,48.9892,-364.799,0,0
365343.35,48.9005,-362.38,0,0
366644.975,48.8935,-359.934,0,0
367946.6,48.8614,-357.66,0,0
369248.225,48.833,-355.321,0,0
370549.85,48.8229,-352.934,0,0
371851.475,48.9142,-350.609,0,0
373153.1,49.0578,-348.402,0,0
374454.725,49.061,-346.423,0,0
375756.35,48.8305,-344.406,0,0
377057.975,48.4534,-342.177,0,0
378359.6,48.2161,-339.818,0,0
379661,47.9449,-337.428,0,0
380963,47.7751,-334.87,0,0
382264,47.7657,-332.247,0,0
383566,47.9984,-329.801,0,0
384868,47.9844,-327.615,0,0
386169,47.9214,-325.233,0,0
387471,47.8749,-322.782,0,0
388773,47.8286,-320.288,0,0
390074,47.8715,-317.76,0,0
391376,47.9569,-315.228,0,0
392677,48.0402,-312.678,0,0
393979,48.1612,-310.108,0,0
395280.7,48.3166,-307.478,0,0
396582.325,48.52,-304.856,0,0
397883.95,48.749,-302.168,0,0
399185.575,49.014,-299.513,0,0
400006.6,49.2222,-297.769,0,0