File: Accelerated corrosion test data/2025-10-22_06-00-04/sample_8.csv
Frequency (Hz),Impedance (ohms),Phase (Radians),Temperature (C),Humidity (%)
10000.0,303.08,-10985.8,0,0
11301.625,268.774,-9735.8,0,0
12603.25,247.955,-8742.61,0,0
13904.875,220.123,-7940.38,0,0
15206.5,200.161,-7265.6,0,0
16508.125,184.817,-6698.4,0,0
17809.75,171.584,-6211.04,0,0
19111.375,164.346,-5787.79,0,0
20413.0,158.209,-5426.09,0,0
21714.625,146.501,-5105.77,0,0
23016.25,141.452,-4822.14,0,0
24317.875,129.973,-4564.55,0,0
25619.5,123.15,-4331.62,0,0
26921.1,118.164,-4120.69,0,0
28222.7,115.667,-3930.21,0,0
29524.4,111.937,-3757.77,0,0
30826,107.771,-3599.74,0,0
32127.6,104.038,-3451.62,0,0
33429.2,104.133,-3314.42,0,0
34730.9,105.615,-3189.98,0,0
36032.5,108.729,-3079.7,0,0
37334.1,104.818,-2980.74,0,0
38635.7,94.1005,-2883.55,0,0
39937.4,86.371,-2786.03,0,0
41239,83.9498,-2695.56,0,0
42540.6,81.1483,-2610.3,0,0
43842.225,79.9944,-2533.03,0,0
45143.85,76.2385,-2458.32,0,0
46445.475,73.2713,-2386.96,0,0
47747.1,71.4271,-2319.48,0,0
49048.725,69.3115,-2255.92,0,0
50350.35,67.7307,-2194.95,0,0
51651.975,66.4859,-2136.74,0,0
52953.6,66.2799,-2081.87,0,0
54255.225,65.0959,-2031.86,0,0
55556.85,62.2004,-1982.51,0,0
56858.475,60.1701,-1933.52,0,0
58160.1,59.4027,-1887.13,0,0
59461.7,58.416,-1843.24,0,0
60763.3,57.2807,-1800.37,0,0
62065,56.79,-1759.45,0,0
63366.6,57.5714,-1720.28,0,0
64668.2,57.147,-1683.9,0,0
65969.8,56.4179,-1648.58,0,0
67271.5,54.8539,-1613.95,0,0
68573.1,53.7254,-1580.13,0,0
69874.7,53.8175,-1546.93,0,0
71176.3,53.7056,-1515.74,0,0
72478,53.2883,-1486.11,0,0
73779.6,52.4961,-1456.68,0,0
75081.2,51.7607,-1427.98,0,0
76382.825,51.5029,-1400.02,0,0
77684.45,51.0278,-1373.25,0,0
78986.075,50.33,-1346.89,0,0
80287.7,49.8497,-1320.66,0,0
81589.325,50.0575,-1294.84,0,0
82890.95,50.961,-1269.89,0,0
84192.575,52.3661,-1246.83,0,0
85494.2,51.2778,-1224.5,0,0
86795.825,51.5836,-1200.81,0,0
88097.45,52.3068,-1178.11,0,0
89399.075,52.9813,-1155.4,0,0
90700.7,55.7014,-1132.42,0,0
92002.3,59.0739,-1113.28,0,0
93303.9,61.0939,-1093.07,0,0
94605.6,63.5241,-1074.77,0,0
95907.2,65.0226,-1055.43,0,0
97208.8,68.5125,-1036.02,0,0
98510.4,73.7679,-1017.89,0,0
99812.1,78.3552,-1002.8,0,0
101114,83.7152,-989.174,0,0
102415,86.3621,-978.351,0,0
103717,86.9506,-966.554,0,0
105019,85.4798,-954.675,0,0
106320.175,84.9753,-940.174,0,0
107621.8,84.7886,-926.841,0,0
108923.425,84.9176,-911.696,0,0
110225.05,86.5778,-898.635,0,0
111526.675,87.3563,-886.025,0,0
112828.3,88.0601,-873.988,0,0
114129.925,87.8927,-862.234,0,0
115431.55,87.5815,-850.627,0,0
116733.175,86.0429,-838.248,0,0
118034.8,85.9608,-825.472,0,0
119336.425,85.4947,-813.451,0,0
120638.05,84.4211,-800.833,0,0
121939.675,84.2675,-788.434,0,0
123241,83.583,-776.401,0,0
124543,82.4038,-763.929,0,0
125845,81.0113,-750.906,0,0
127146,80.1456,-737.103,0,0
128448,80.0318,-723.098,0,0
129749,79.8736,-709.253,0,0
131051,81.1802,-694.688,0,0
132353,82.3758,-681.684,0,0
133654,82.918,-668.462,0,0
134956,84.3284,-654.147,0,0
136258,86.491,-641.429,0,0
137559,86.2481,-628.612,0,0
138860.775,86.4726,-612.692,0,0
140162.4,88.7006,-597.138,0,0
141464.025,91.0273,-581.335,0,0
142765.65,93.847,-563.984,0,0
144067.275,98.6974,-546.645,0,0
145368.9,105.327,-528.148,0,0
146670.525,114.454,-510.475,0,0
147972.15,123.654,-494.867,0,0
149273.775,134.776,-475.723,0,0
150575.4,154.264,-456.32,0,0
151877.025,181.085,-449.092,0,0
153178.65,198.729,-452.386,0,0
154480,209.81,-453.517,0,0
155782,224.047,-456.257,0,0
157084,220.863,-466.084,0,0
158385,221.313,-456.611,0,0
159687,227.424,-456.513,0,0
160988,219.232,-451.671,0,0
162290,225.922,-434.301,0,0
163592,237.145,-431.392,0,0
164893,242.642,-430.552,0,0
166195,240.665,-433.296,0,0
167497,228.989,-427.457,0,0
168798,219.699,-412.986,0,0
170100,215.005,-390.412,0,0
171401.375,215.256,-365.207,0,0
172703.0,224.08,-337.486,0,0
174004.625,236.861,-314.484,0,0
175306.25,247.185,-291.362,0,0
176607.875,263.622,-262.561,0,0
177909.5,282.648,-232.719,0,0
179211.125,315.331,-199.66,0,0
180512.75,357.893,-174.933,0,0
181814.375,406.605,-155.269,0,0
183116.0,464.306,-155.543,0,0
184417.625,503.243,-161.097,0,0
185719.25,554.401,-166.926,0,0
187021,599.798,-183.879,0,0
188322,640.048,-203.911,0,0
189624,673.58,-225.307,0,0
190926,712.747,-239.692,0,0
192227,752.466,-268.006,0,0
193529,799.015,-280.57,0,0
194831,874.808,-318.208,0,0
196132,947.03,-398.378,0,0
197434,987.214,-514.402,0,0
198735,975.249,-646.957,0,0
200037,908.839,-754.266,0,0
201339,831.773,-814.937,0,0
202640.35,741.274,-859.168,0,0
203941.975,664.095,-852.221,0,0
205243.6,605.344,-839.708,0,0
206545.225,564.35,-806.721,0,0
207846.85,552.349,-780.124,0,0
209148.475,548.163,-767.284,0,0
210450.1,548.151,-756.019,0,0
211751.725,557.361,-755.601,0,0
213053.35,564.039,-769.563,0,0
214354.975,562.567,-789.365,0,0
215656.6,554.947,-812.181,0,0
216958.225,538.203,-834.558,0,0
218259.85,516.92,-855.133,0,0
219561,487.339,-870.968,0,0
220863,454.18,-877.035,0,0
222165,425.619,-872.31,0,0
223466,405.523,-863.467,0,0
224768,392.789,-858.392,0,0
226070,382.59,-859.819,0,0
227371,366.018,-865.548,0,0
228673,346.961,-865.801,0,0
229974,329.266,-869.511,0,0
231276,304.8,-871.993,0,0
232578,277.473,-868.741,0,0
233879,248.758,-859.037,0,0
235180.95,223.609,-841.015,0,0
236482.575,206.149,-819.292,0,0
237784.2,194.61,-797.891,0,0
239085.825,189.05,-776.653,0,0
240387.45,188.9,-761.287,0,0
241689.075,187.556,-752.34,0,0
242990.7,181.627,-743.532,0,0
244292.325,175.361,-732.203,0,0
245593.95,171.46,-719.797,0,0
246895.575,170.741,-708.588,0,0
248197.2,168.909,-699.53,0,0
249498.825,167.157,-689.891,0,0
250800,166.639,-679.992,0,0
252102,168.835,-671.044,0,0
253404,171.716,-666.543,0,0
254705,170.355,-664.366,0,0
256007,165.366,-659.811,0,0
257309,160.505,-651.058,0,0
258610,159.107,-639.49,0,0
259912,162.388,-628.856,0,0
261213,166.483,-621.678,0,0
262515,169.63,-616.071,0,0
263817,172.475,-608.755,0,0
265118,177.035,-600.152,0,0
266420,186.816,-590.246,0,0
267721.55,204.152,-585.252,0,0
269023.175,223.342,-590.35,0,0
270324.8,240.891,-604.052,0,0
271626.425,250.922,-628.201,0,0
272928.05,249.158,-657.348,0,0
274229.675,230.009,-684.229,0,0
275531.3,201.922,-696.362,0,0
276832.925,175.372,-696.229,0,0
278134.55,153.708,-688.892,0,0
279436.175,136.947,-676.674,0,0
280737.8,127.405,-662.452,0,0
282039.425,123.328,-650.669,0,0
283341,121.019,-642.447,0,0
284643,118.689,-634.694,0,0
285944,118.86,-627.444,0,0
287246,122.062,-623.87,0,0
288548,123.274,-627.692,0,0
289849,116.012,-632.773,0,0
291151,104.99,-631.93,0,0
292452,94.7352,-627.8,0,0
293754,85.3632,-621.153,0,0
295056,77.8078,-612.353,0,0
296357,72.8233,-603.29,0,0
297659,68.8883,-594.66,0,0
298960.525,65.74,-585.877,0,0
300262.15,63.8314,-576.815,0,0
301563.775,63.5858,-568.036,0,0
302865.4,64.685,-560.463,0,0
304167.025,66.4147,-554.152,0,0
305468.65,68.5224,-549.172,0,0
306770.275,70.2087,-545.521,0,0
308071.9,71.7266,-542.616,0,0
309373.525,71.9158,-541.243,0,0
310675.15,70.816,-538.826,0,0
311976.775,70.0889,-536.281,0,0
313278.4,68.7342,-534.007,0,0
314580,67.0577,-531.245,0,0
315882,65.0974,-528.092,0,0
317183,63.6392,-524.421,0,0
318485,62.3568,-520.823,0,0
319787,61.7164,-517.059,0,0
321088,61.3255,-514.121,0,0
322390,60.5834,-511.747,0,0
323691,59.3273,-509.685,0,0
324993,57.1364,-507.238,0,0
326295,54.8492,-504.011,0,0
327596,52.9786,-500.393,0,0
328898,51.2521,-496.81,0,0
330200,49.4581,-492.945,0,0
331501.125,47.9564,-488.884,0,0
332802.75,46.7193,-484.478,0,0
334104.375,46.072,-479.852,0,0
335406.0,46.2603,-475.668,0,0
336707.625,46.6026,-472.386,0,0
338009.25,46.4175,-469.621,0,0
339310.875,45.6784,-466.859,0,0
340612.5,44.6733,-463.815,0,0
341914.125,43.5139,-460.433,0,0
343215.75,42.563,-456.63,0,0
344517.375,41.8235,-452.535,0,0
345819.0,41.5284,-448.341,0,0
347121,41.7038,-444.251,0,0
348422,42.0676,-440.306,0,0
349724,42.6771,-436.468,0,0
351025,43.7899,-432.839,0,0
352327,44.9946,-429.756,0,0
353629,46.1176,-427.05,0,0
354930,47.0674,-424.625,0,0
356232,47.973,-422.371,0,0
357534,48.6428,-420.262,0,0
358835,49.1978,-418.172,0,0
360137,49.7189,-416.085,0,0
361438,50.2101,-414.084,0,0
362740.1,50.6453,-412.24,0,0
364041.725,50.9295,-410.43,0,0
365343.35,51.1116,-408.649,0,0
366644.975,51.1341,-406.656,0,0
367946.6,51.2434,-404.67,0,0
369248.225,51.438,-402.387,0,0
370549.85,52.3417,-400.298,0,0
371851.475,53.3054,-399.106,0,0
373153.1,53.5761,-398.458,0,0
374454.725,53.0275,-397.864,0,0
375756.35,51.8518,-396.432,0,0
377057.975,51.2467,-394.438,0,0
378359.6,50.6902,-392.933,0,0
379661,49.4965,-390.855,0,0
380963,49.3463,-387.876,0,0
382264,50.0818,-386.318,0,0
383566,49.7101,-385.607,0,0
384868,48.3099,-384.467,0,0
386169,46.5922,-382.452,0,0
387471,45.0756,-379.727,0,0
388773,44.0693,-376.466,0,0
390074,43.7279,-373.311,0,0
391376,43.621,-370.377,0,0
392677,43.5,-367.632,0,0
393979,43.3231,-364.746,0,0
395280.7,43.372,-361.785,0,0
396582.325,43.7229,-358.848,0,0
397883.95,44.1066,-356.199,0,0
399185.575,44.4985,-353.601,0,0
400006.6,44.7047,-351.979,0,0