File: Accelerated corrosion test data/2025-10-20_09-18-15/sample_1.csv
Frequency (Hz),Impedance (ohms),Phase (Radians),Temperature (C),Humidity (%)
10000.0,244.333,-12242,0,0
11301.625,217.316,-10843.5,0,0
12603.25,197.422,-9740.24,0,0
13904.875,185.866,-8811.98,0,0
15206.5,194.3,-8081.61,0,0
16508.125,157.223,-7453.17,0,0
17809.75,148.125,-6913.89,0,0
19111.375,136.978,-6444.33,0,0
20413.0,160.748,-5998.86,0,0
21714.625,138.463,-5682.24,0,0
23016.25,123.472,-5379.95,0,0
24317.875,113.899,-5086.36,0,0
25619.5,106.026,-4821.5,0,0
26921.1,116.466,-4570.3,0,0
28222.7,112.449,-4366.43,0,0
29524.4,108.792,-4201.78,0,0
30826,102.348,-4011.88,0,0
32127.6,98.4254,-3855.67,0,0
33429.2,89.8874,-3710.2,0,0
34730.9,83.1402,-3568.03,0,0
36032.5,78.9323,-3436.82,0,0
37334.1,76.3096,-3314.03,0,0
38635.7,73.9357,-3199.99,0,0
39937.4,71.8072,-3092.82,0,0
41239,73.4622,-2993.75,0,0
42540.6,71.8996,-2901.47,0,0
43842.225,68.4584,-2814.05,0,0
45143.85,68.9074,-2732.27,0,0
46445.475,65.8804,-2654.97,0,0
47747.1,65.0596,-2581.69,0,0
49048.725,62.4203,-2511.09,0,0
50350.35,60.2135,-2444.51,0,0
51651.975,59.3932,-2380.98,0,0
52953.6,58.3952,-2319.7,0,0
54255.225,57.3091,-2262.43,0,0
55556.85,56.1837,-2206.77,0,0
56858.475,55.4852,-2153.53,0,0
58160.1,55.0389,-2102.82,0,0
59461.7,54.896,-2054.65,0,0
60763.3,55.0084,-2008.64,0,0
62065,53.4984,-1964.51,0,0
63366.6,52.9451,-1920.85,0,0
64668.2,53.5473,-1878.61,0,0
65969.8,55.5763,-1840.75,0,0
67271.5,54.0267,-1803.96,0,0
68573.1,53.5098,-1768.09,0,0
69874.7,52.7835,-1733.91,0,0
71176.3,50.6689,-1699.49,0,0
72478,48.962,-1665.59,0,0
73779.6,48.5244,-1632.04,0,0
75081.2,48.7926,-1599.86,0,0
76382.825,49.6056,-1568.69,0,0
77684.45,50.6254,-1539.21,0,0
78986.075,52.2974,-1511.61,0,0
80287.7,51.3488,-1485.04,0,0
81589.325,50.8748,-1457.12,0,0
82890.95,51.3794,-1430.24,0,0
84192.575,52.8841,-1403.84,0,0
85494.2,55.002,-1379.2,0,0
86795.825,55.8201,-1355.87,0,0
88097.45,56.4632,-1332.16,0,0
89399.075,58.1707,-1307.72,0,0
90700.7,61.4068,-1284.35,0,0
92002.3,67.4037,-1262.75,0,0
93303.9,75.2808,-1245.58,0,0
94605.6,74.2878,-1238.39,0,0
95907.2,67.5648,-1219.91,0,0
97208.8,65.4911,-1199.46,0,0
98510.4,65.1618,-1179.07,0,0
99812.1,64.1329,-1159.56,0,0
101114,63.679,-1139.38,0,0
102415,63.9307,-1117.55,0,0
103717,68.5473,-1096.41,0,0
105019,75.291,-1079.07,0,0
106320.175,81.2936,-1062.74,0,0
107621.8,87.5601,-1049.88,0,0
108923.425,91.7798,-1038.29,0,0
110225.05,94.4389,-1029.69,0,0
111526.675,94.7228,-1016.92,0,0
112828.3,98.084,-1007.2,0,0
114129.925,97.4976,-999.856,0,0
115431.55,94.3767,-991.343,0,0
116733.175,89.3982,-980.096,0,0
118034.8,84.2272,-965.964,0,0
119336.425,82.1839,-950.251,0,0
120638.05,82.5139,-935.928,0,0
121939.675,80.7534,-923.121,0,0
123241,79.1548,-908.238,0,0
124543,79.1868,-893.134,0,0
125845,79.9236,-878.266,0,0
127146,80.891,-863.789,0,0
128448,83.1064,-849.156,0,0
129749,85.5564,-834.816,0,0
131051,90.2217,-821.46,0,0
132353,94.5172,-810.519,0,0
133654,97.7096,-799.688,0,0
134956,101.249,-789.102,0,0
136258,104.184,-778.58,0,0
137559,109.449,-769,0,0
138860.775,111.974,-763.127,0,0
140162.4,111.385,-755.565,0,0
141464.025,110.6,-745.401,0,0
142765.65,111.002,-734.124,0,0
144067.275,112.813,-722.917,0,0
145368.9,114.584,-711.883,0,0
146670.525,118.122,-701.482,0,0
147972.15,120.204,-693.18,0,0
149273.775,121.578,-682.325,0,0
150575.4,123.611,-674.147,0,0
151877.025,122.095,-663.275,0,0
153178.65,121.642,-648.266,0,0
154480,125.153,-631.975,0,0
155782,131.624,-614.914,0,0
157084,143.257,-599.699,0,0
158385,155.692,-590.035,0,0
159687,164.471,-577.903,0,0
160988,182.963,-566.733,0,0
162290,201.366,-565.653,0,0
163592,212.737,-566.491,0,0
164893,226.329,-566.221,0,0
166195,240.937,-572.075,0,0
167497,249.766,-582.752,0,0
168798,250.253,-596.022,0,0
170100,242.371,-604.746,0,0
171401.375,233.767,-603.435,0,0
172703.0,231.014,-599.68,0,0
174004.625,227.549,-596.746,0,0
175306.25,225.705,-593.524,0,0
176607.875,223.515,-592.208,0,0
177909.5,219.796,-588.683,0,0
179211.125,215.203,-585.826,0,0
180512.75,208.471,-581.523,0,0
181814.375,201.431,-574.24,0,0
183116.0,194.763,-562.776,0,0
184417.625,189.936,-550.141,0,0
185719.25,187.573,-535.114,0,0
187021,187.474,-519.561,0,0
188322,190.731,-503.711,0,0
189624,194.383,-489.783,0,0
190926,197.53,-474.456,0,0
192227,203.097,-456.866,0,0
193529,212.262,-439.512,0,0
194831,222.777,-423.103,0,0
196132,236.163,-405.727,0,0
197434,252.318,-390.267,0,0
198735,269.263,-376.003,0,0
200037,288.166,-359.422,0,0
201339,312.15,-342.874,0,0
202640.35,344.811,-325.199,0,0
203941.975,388.195,-315.541,0,0
205243.6,439.314,-321.469,0,0
206545.225,485.277,-345.757,0,0
207846.85,517.162,-381.733,0,0
209148.475,536.743,-421.432,0,0
210450.1,537.853,-463.039,0,0
211751.725,523.79,-484.356,0,0
213053.35,520.652,-485.033,0,0
214354.975,535.596,-492.967,0,0
215656.6,546.006,-509.543,0,0
216958.225,554.946,-524.618,0,0
218259.85,565.363,-540.53,0,0
219561,579.671,-556.195,0,0
220863,598.366,-580.588,0,0
222165,615.768,-616.124,0,0
223466,621.12,-661.659,0,0
224768,615.105,-709.644,0,0
226070,596.495,-755.43,0,0
227371,567.556,-797.322,0,0
228673,528.341,-830.231,0,0
229974,483.938,-850.659,0,0
231276,440.014,-857.771,0,0
232578,402.673,-854.68,0,0
233879,375.219,-848.545,0,0
235180.95,351.659,-845.286,0,0
236482.575,327.51,-841.445,0,0
237784.2,303.429,-836.882,0,0
239085.825,279.739,-827.913,0,0
240387.45,259.902,-816.689,0,0
241689.075,243.025,-805.246,0,0
242990.7,228.102,-793.218,0,0
244292.325,216.028,-781.659,0,0
245593.95,203.833,-771.623,0,0
246895.575,191.691,-760.432,0,0
248197.2,181.03,-748.052,0,0
249498.825,172.177,-735.279,0,0
250800,164.973,-722.713,0,0
252102,158.941,-710.808,0,0
253404,152.934,-698.709,0,0
254705,148.832,-685.777,0,0
256007,146.483,-673.916,0,0
257309,144.626,-662.38,0,0
258610,143.785,-650.527,0,0
259912,145.428,-638.612,0,0
261213,149.379,-628.919,0,0
262515,153.9,-621.472,0,0
263817,158.876,-615.616,0,0
265118,164.894,-611.79,0,0
266420,171.451,-611.605,0,0
267721.55,175.722,-616.899,0,0
269023.175,172.463,-624.553,0,0
270324.8,162.495,-627.686,0,0
271626.425,151.663,-623.934,0,0
272928.05,144.173,-615.807,0,0
274229.675,140.312,-606.855,0,0
275531.3,139.262,-598.517,0,0
276832.925,139.972,-591.445,0,0
278134.55,141.569,-586.618,0,0
279436.175,142.004,-583.456,0,0
280737.8,141.805,-579.843,0,0
282039.425,141.991,-577.439,0,0
283341,140.171,-574.69,0,0
284643,138.902,-571.588,0,0
285944,136.52,-568.543,0,0
287246,133.423,-563.948,0,0
288548,131.331,-556.688,0,0
289849,133.646,-549.489,0,0
291151,136.102,-546.454,0,0
292452,136.327,-543.618,0,0
293754,135.699,-539.623,0,0
295056,135.778,-534.203,0,0
296357,137.507,-527.859,0,0
297659,141.592,-522.074,0,0
298960.525,147.129,-517.986,0,0
300262.15,153.112,-516.126,0,0
301563.775,158.761,-515.324,0,0
302865.4,165.062,-516.623,0,0
304167.025,169.524,-519.449,0,0
305468.65,173.599,-522.625,0,0
306770.275,177.508,-527.692,0,0
308071.9,178.958,-534.766,0,0
309373.525,177.857,-541.627,0,0
310675.15,175.545,-547.603,0,0
311976.775,171.326,-554.195,0,0
313278.4,164.787,-558.419,0,0
314580,158.924,-561.007,0,0
315882,152.819,-563.957,0,0
317183,145.168,-565.99,0,0
318485,136.84,-566.367,0,0
319787,128.27,-564.803,0,0
321088,120.163,-561.748,0,0
322390,112.99,-556.712,0,0
323691,107.938,-550.44,0,0
324993,105.185,-544.651,0,0
326295,103.72,-539.908,0,0
327596,102.621,-536.797,0,0
328898,101.128,-534.457,0,0
330200,99.0608,-532.664,0,0
331501.125,96.25,-530.951,0,0
332802.75,93.1104,-529.171,0,0
334104.375,89.1338,-527.21,0,0
335406.0,84.9911,-524.049,0,0
336707.625,81.3206,-520.342,0,0
338009.25,78.091,-516.291,0,0
339310.875,75.3369,-512.188,0,0
340612.5,72.9589,-508.055,0,0
341914.125,70.6692,-504.188,0,0
343215.75,68.4006,-500.108,0,0
344517.375,66.3112,-496.089,0,0
345819.0,64.2181,-491.965,0,0
347121,62.1061,-487.516,0,0
348422,60.5933,-482.714,0,0
349724,59.5842,-478.212,0,0
351025,58.6166,-473.646,0,0
352327,58.0992,-469.235,0,0
353629,57.6717,-465.1,0,0
354930,57.3514,-461.072,0,0
356232,57.0807,-457.179,0,0
357534,56.8396,-453.28,0,0
358835,56.6582,-449.328,0,0
360137,56.8163,-445.465,0,0
361438,57.006,-441.739,0,0
362740.1,57.239,-438.089,0,0
364041.725,57.5292,-434.332,0,0
365343.35,58.1726,-430.601,0,0
366644.975,58.7736,-427.312,0,0
367946.6,58.9581,-423.638,0,0
369248.225,59.8275,-419.262,0,0
370549.85,61.588,-414.958,0,0
371851.475,64.3807,-411.079,0,0
373153.1,67.7375,-408.425,0,0
374454.725,70.8137,-406.8,0,0
375756.35,73.5025,-405.846,0,0
377057.975,75.7069,-405.222,0,0
378359.6,77.7501,-404.9,0,0
379661,79.2161,-404.812,0,0
380963,80.939,-404.412,0,0
382264,83.0293,-405.389,0,0
383566,83.9264,-407.451,0,0
384868,83.1192,-409.828,0,0
386169,80.9217,-411.16,0,0
387471,78.1366,-411.548,0,0
388773,75.2258,-410.59,0,0
390074,73.0407,-408.838,0,0
391376,71.6357,-407.323,0,0
392677,69.8363,-406.268,0,0
393979,67.4169,-404.824,0,0
395280.7,64.9163,-402.603,0,0
396582.325,62.5145,-399.665,0,0
397883.95,60.8207,-396.078,0,0
399185.575,59.7989,-392.422,0,0
400006.6,59.4715,-390.242,0,0