File: Accelerated corrosion test data/2025-10-20_09-18-15/sample_2.csv
Frequency (Hz),Impedance (ohms),Phase (Radians),Temperature (C),Humidity (%)
10000.0,224.767,-11494.6,0,0
11301.625,200.316,-10180.1,0,0
12603.25,180.265,-9139.14,0,0
13904.875,185.695,-8291.69,0,0
15206.5,160.586,-7595.74,0,0
16508.125,141.161,-6996.14,0,0
17809.75,131.626,-6485.29,0,0
19111.375,127.071,-6043.76,0,0
20413.0,116.79,-5657.41,0,0
21714.625,126.594,-5328.22,0,0
23016.25,111.217,-5029.75,0,0
24317.875,101.868,-4762.09,0,0
25619.5,96.3226,-4517.19,0,0
26921.1,94.3463,-4297.45,0,0
28222.7,89.3939,-4096.72,0,0
29524.4,93.3496,-3911.78,0,0
30826,87.4567,-3756.94,0,0
32127.6,81.6287,-3602.17,0,0
33429.2,79.0573,-3463.5,0,0
34730.9,75.3616,-3331.81,0,0
36032.5,72.4881,-3209.92,0,0
37334.1,70.3447,-3095.75,0,0
38635.7,68.4473,-2989.97,0,0
39937.4,66.5011,-2890.4,0,0
41239,65.3089,-2797.11,0,0
42540.6,64.2025,-2710.13,0,0
43842.225,62.7501,-2627.7,0,0
45143.85,61.742,-2549.78,0,0
46445.475,60.9337,-2477.01,0,0
47747.1,60.2359,-2406.84,0,0
49048.725,60.1807,-2343.15,0,0
50350.35,57.5839,-2280.38,0,0
51651.975,56.4498,-2221.08,0,0
52953.6,54.6836,-2163.41,0,0
54255.225,54.088,-2108.31,0,0
55556.85,53.6409,-2055.95,0,0
56858.475,53.6451,-2005.97,0,0
58160.1,53.8574,-1958.46,0,0
59461.7,54.3688,-1912.2,0,0
60763.3,55.9984,-1869.59,0,0
62065,58.8583,-1831.39,0,0
63366.6,55.6192,-1793.53,0,0
64668.2,52.7583,-1755.88,0,0
65969.8,50.6179,-1716.64,0,0
67271.5,51.1327,-1678.81,0,0
68573.1,53.3191,-1644.6,0,0
69874.7,55.7411,-1614.09,0,0
71176.3,52.7645,-1586.16,0,0
72478,47.6833,-1555.53,0,0
73779.6,45.061,-1522.18,0,0
75081.2,45.0206,-1489.66,0,0
76382.825,46.8141,-1459.28,0,0
77684.45,49.6074,-1430.97,0,0
78986.075,52.7222,-1406.62,0,0
80287.7,51.7431,-1384.96,0,0
81589.325,49.06,-1359.87,0,0
82890.95,47.8598,-1333.89,0,0
84192.575,48.6371,-1309.14,0,0
85494.2,49.0957,-1285.52,0,0
86795.825,50.0378,-1263.18,0,0
88097.45,50.42,-1241.68,0,0
89399.075,51.1644,-1220.68,0,0
90700.7,50.7257,-1199.65,0,0
92002.3,52.5948,-1178.35,0,0
93303.9,55.1997,-1159.92,0,0
94605.6,55.236,-1143.21,0,0
95907.2,54.1992,-1123.27,0,0
97208.8,57.432,-1106.46,0,0
98510.4,56.7707,-1092.33,0,0
99812.1,52.9176,-1076.78,0,0
101114,50.1799,-1059.89,0,0
102415,46.9642,-1039.69,0,0
103717,45.8439,-1018.47,0,0
105019,49.1711,-998.331,0,0
106320.175,53.7395,-980.823,0,0
107621.8,57.7353,-969.185,0,0
108923.425,56.2127,-957.392,0,0
110225.05,52.5063,-942.153,0,0
111526.675,51.1787,-924.18,0,0
112828.3,51.337,-906.797,0,0
114129.925,52.661,-889.358,0,0
115431.55,55.2164,-872.773,0,0
116733.175,58.0905,-856.788,0,0
118034.8,62.0614,-842.08,0,0
119336.425,66.0785,-828.871,0,0
120638.05,69.4169,-817.98,0,0
121939.675,69.4826,-807.096,0,0
123241,69.2153,-794.086,0,0
124543,69.5182,-781.105,0,0
125845,69.3536,-767.019,0,0
127146,70.2431,-751.817,0,0
128448,72.9281,-736.913,0,0
129749,76.422,-723.054,0,0
131051,80.6141,-710.769,0,0
132353,82.7096,-699.588,0,0
133654,84.1033,-687.579,0,0
134956,84.4843,-674.881,0,0
136258,85.6642,-660.32,0,0
137559,87.9791,-645.573,0,0
138860.775,90.0131,-631.254,0,0
140162.4,91.8893,-614.602,0,0
141464.025,96.9526,-595.805,0,0
142765.65,105.348,-579.565,0,0
144067.275,113.239,-563.472,0,0
145368.9,122.626,-547.324,0,0
146670.525,133.068,-531.201,0,0
147972.15,146.597,-513.932,0,0
149273.775,166.568,-496.832,0,0
150575.4,193.615,-487.616,0,0
151877.025,220.469,-491.455,0,0
153178.65,236.871,-504.342,0,0
154480,242.099,-516.167,0,0
155782,244.415,-522.533,0,0
157084,242.972,-528.124,0,0
158385,238.744,-529.05,0,0
159687,234.646,-524.02,0,0
160988,236.166,-517.408,0,0
162290,245.462,-517.588,0,0
163592,239.745,-526.124,0,0
164893,226.51,-525.918,0,0
166195,212.678,-514.127,0,0
167497,202.754,-499.535,0,0
168798,196.538,-477.554,0,0
170100,196.313,-455.288,0,0
171401.375,199.151,-432.853,0,0
172703.0,206.579,-409.719,0,0
174004.625,216.633,-387.199,0,0
175306.25,232.104,-363.542,0,0
176607.875,253.316,-343.106,0,0
177909.5,279.698,-332.054,0,0
179211.125,301.692,-327.033,0,0
180512.75,313.156,-326.613,0,0
181814.375,318.997,-313.844,0,0
183116.0,331.774,-294.433,0,0
184417.625,354.343,-271.005,0,0
185719.25,383.765,-253.94,0,0
187021,416.111,-237.907,0,0
188322,456.364,-227.576,0,0
189624,492.475,-221.568,0,0
190926,536.741,-210.405,0,0
192227,594.634,-206.131,0,0
193529,664.577,-216.983,0,0
194831,732.769,-251.9,0,0
196132,790.104,-302.835,0,0
197434,840.29,-363.316,0,0
198735,877.338,-439.976,0,0
200037,896.046,-523.689,0,0
201339,893.584,-612.046,0,0
202640.35,866.543,-691.298,0,0
203941.975,825.414,-755.738,0,0
205243.6,781.64,-811.267,0,0
206545.225,724.403,-849.644,0,0
207846.85,668.446,-868.383,0,0
209148.475,630.465,-878.576,0,0
210450.1,590.073,-897.926,0,0
211751.725,539.306,-908.473,0,0
213053.35,493.629,-901.618,0,0
214354.975,456.691,-889.679,0,0
215656.6,425.829,-875.1,0,0
216958.225,402.075,-857.374,0,0
218259.85,385.034,-841.03,0,0
219561,372.378,-826.206,0,0
220863,362.124,-812.609,0,0
222165,357.201,-801.241,0,0
223466,352.793,-794.251,0,0
224768,348.631,-788.079,0,0
226070,345.556,-783.638,0,0
227371,344.325,-781.537,0,0
228673,344.189,-785.009,0,0
229974,338.33,-792.657,0,0
231276,327.961,-799.209,0,0
232578,314.639,-804.791,0,0
233879,298.795,-807.624,0,0
235180.95,282.4,-807.4,0,0
236482.575,266.358,-805.243,0,0
237784.2,249.611,-801.04,0,0
239085.825,234.698,-794.577,0,0
240387.45,219.971,-786.639,0,0
241689.075,207.024,-776.551,0,0
242990.7,197.644,-765.485,0,0
244292.325,191.032,-756.642,0,0
245593.95,184.561,-751.252,0,0
246895.575,173.677,-748.15,0,0
248197.2,159.265,-740.435,0,0
249498.825,145.547,-729.001,0,0
250800,133.523,-713.727,0,0
252102,125.653,-695.749,0,0
253404,122.192,-678.629,0,0
254705,120.442,-662.609,0,0
256007,120.819,-646.626,0,0
257309,124.012,-631.886,0,0
258610,128.823,-618.956,0,0
259912,135.205,-607.786,0,0
261213,142.733,-599.002,0,0
262515,150.479,-592.853,0,0
263817,157.586,-588.456,0,0
265118,164.607,-585.558,0,0
266420,170.446,-584.886,0,0
267721.55,175.188,-584.899,0,0
269023.175,177.992,-586.527,0,0
270324.8,177.871,-586.011,0,0
271626.425,178.74,-583.398,0,0
272928.05,181.488,-578.595,0,0
274229.675,189.766,-574.471,0,0
275531.3,202.286,-576.739,0,0
276832.925,212.173,-589.254,0,0
278134.55,212.066,-605.108,0,0
279436.175,204.927,-617.92,0,0
280737.8,194.35,-626.27,0,0
282039.425,183.177,-632.33,0,0
283341,167.983,-634.97,0,0
284643,155.205,-631.729,0,0
285944,142.016,-628.487,0,0
287246,127.33,-619.38,0,0
288548,117.121,-602.51,0,0
289849,118.124,-582.931,0,0
291151,127.846,-569.118,0,0
292452,142.956,-564.974,0,0
293754,151.49,-573.449,0,0
295056,149.159,-578.229,0,0
296357,152.028,-577.493,0,0
297659,155.55,-588.451,0,0
298960.525,146.385,-597.776,0,0
300262.15,135.192,-599.711,0,0
301563.775,126.695,-597.237,0,0
302865.4,121.461,-594.823,0,0
304167.025,116.102,-594.447,0,0
305468.65,108.799,-594.188,0,0
306770.275,100.281,-591.604,0,0
308071.9,92.5494,-587.293,0,0
309373.525,85.4817,-581.905,0,0
310675.15,79.4894,-575.806,0,0
311976.775,74.4561,-569.252,0,0
313278.4,70.2669,-562.571,0,0
314580,66.8362,-555.831,0,0
315882,64.0414,-549.343,0,0
317183,61.6785,-542.774,0,0
318485,59.9462,-536.388,0,0
319787,58.5456,-530.365,0,0
321088,57.251,-524.393,0,0
322390,56.2036,-518.248,0,0
323691,55.528,-511.981,0,0
324993,55.6769,-505.19,0,0
326295,57.754,-498.54,0,0
327596,61.1052,-494.283,0,0
328898,63.4291,-491.44,0,0
330200,65.6218,-489.329,0,0
331501.125,67.1754,-488.52,0,0
332802.75,67.0593,-488.666,0,0
334104.375,64.9428,-487.918,0,0
335406.0,62.4489,-485.693,0,0
336707.625,60.2734,-482.732,0,0
338009.25,58.3477,-479.111,0,0
339310.875,56.7265,-475.383,0,0
340612.5,55.4741,-471.263,0,0
341914.125,54.4277,-466.97,0,0
343215.75,53.7862,-462.389,0,0
344517.375,53.7372,-457.717,0,0
345819.0,54.2683,-453.149,0,0
347121,55.2318,-448.952,0,0
348422,56.5528,-444.98,0,0
349724,58.269,-441.473,0,0
351025,60.2736,-438.499,0,0
352327,61.9942,-436.532,0,0
353629,63.0384,-434.412,0,0
354930,64.2002,-432.071,0,0
356232,65.6473,-429.845,0,0
357534,67.4662,-427.933,0,0
358835,69.4316,-426.743,0,0
360137,71.1512,-426.277,0,0
361438,72.1338,-426.441,0,0
362740.1,72.2981,-426.565,0,0
364041.725,71.8935,-426.362,0,0
365343.35,71.2691,-425.774,0,0
366644.975,70.5625,-424.767,0,0
367946.6,70.2658,-423.418,0,0
369248.225,70.6285,-422.626,0,0
370549.85,70.311,-422.757,0,0
371851.475,69.022,-422.321,0,0
373153.1,68.1416,-421.644,0,0
374454.725,66.846,-421.263,0,0
375756.35,65.0811,-420.519,0,0
377057.975,63.3955,-419.383,0,0
378359.6,61.6262,-418.556,0,0
379661,58.6822,-417.409,0,0
380963,56.0135,-413.909,0,0
382264,55.8639,-411.142,0,0
383566,54.7624,-410.12,0,0
384868,52.4245,-408.361,0,0
386169,50.128,-405.65,0,0
387471,48.3434,-402.427,0,0
388773,46.9585,-398.871,0,0
390074,46.489,-395.128,0,0
391376,46.7475,-392.462,0,0
392677,46.0792,-390.811,0,0
393979,44.2786,-388.474,0,0
395280.7,42.4514,-384.874,0,0
396582.325,41.5282,-380.614,0,0
397883.95,41.4691,-376.337,0,0
399185.575,41.9829,-372.474,0,0
400006.6,42.4796,-370.203,0,0