File: Accelerated corrosion test data/2025-10-20_09-18-15/sample_4.csv
Frequency (Hz),Impedance (ohms),Phase (Radians),Temperature (C),Humidity (%)
10000.0,263.323,-11945.4,0,0
11301.625,233.951,-10582.3,0,0
12603.25,213.136,-9494.24,0,0
13904.875,193.636,-8606.94,0,0
15206.5,180.301,-7876.87,0,0
16508.125,198,-7268.36,0,0
17809.75,155.731,-6750.69,0,0
19111.375,145.178,-6290.27,0,0
20413.0,140.392,-5887.28,0,0
21714.625,146.367,-5541.51,0,0
23016.25,124.576,-5238.59,0,0
24317.875,115.86,-4952.66,0,0
25619.5,111.985,-4697.6,0,0
26921.1,106.08,-4466.32,0,0
28222.7,119.228,-4263.22,0,0
29524.4,113.331,-4085.37,0,0
30826,98.7402,-3909.55,0,0
32127.6,100.707,-3747.86,0,0
33429.2,89.8102,-3606.2,0,0
34730.9,84.5125,-3467.25,0,0
36032.5,81.5298,-3338.99,0,0
37334.1,79.3098,-3219.52,0,0
38635.7,76.9199,-3106.69,0,0
39937.4,77.0613,-3000.33,0,0
41239,80.2323,-2905.08,0,0
42540.6,78.9131,-2817.53,0,0
43842.225,73.5637,-2733.07,0,0
45143.85,71.102,-2651.52,0,0
46445.475,70.175,-2573.59,0,0
47747.1,69.8617,-2503.79,0,0
49048.725,65.7791,-2433.96,0,0
50350.35,64.3609,-2366.21,0,0
51651.975,63.8073,-2301.33,0,0
52953.6,65.6801,-2238.02,0,0
54255.225,73.5442,-2180.77,0,0
55556.85,71.4662,-2137.81,0,0
56858.475,65.4293,-2083.26,0,0
58160.1,66.2597,-2030.63,0,0
59461.7,70.4437,-1980.3,0,0
60763.3,80.7122,-1941.63,0,0
62065,69.6186,-1908.66,0,0
63366.6,63.9164,-1862.39,0,0
64668.2,64.2222,-1818.87,0,0
65969.8,66.3419,-1777.69,0,0
67271.5,69.6734,-1741.49,0,0
68573.1,74.0778,-1712.19,0,0
69874.7,66.3909,-1682.81,0,0
71176.3,64.73,-1648.17,0,0
72478,58.9109,-1616.05,0,0
73779.6,57.4364,-1579.74,0,0
75081.2,59.5189,-1546.42,0,0
76382.825,61.9652,-1517.38,0,0
77684.45,65.3681,-1489.32,0,0
78986.075,64.0986,-1467.07,0,0
80287.7,61.1243,-1440.02,0,0
81589.325,60.7368,-1413.93,0,0
82890.95,59.5118,-1389.1,0,0
84192.575,58.1438,-1364.22,0,0
85494.2,57.0721,-1339.91,0,0
86795.825,56.222,-1316.01,0,0
88097.45,54.626,-1293.12,0,0
89399.075,53.4127,-1268.68,0,0
90700.7,53.3906,-1245.5,0,0
92002.3,53.741,-1222.23,0,0
93303.9,55.2228,-1201.21,0,0
94605.6,53.7645,-1181.22,0,0
95907.2,53.0328,-1158.77,0,0
97208.8,53.5368,-1136.93,0,0
98510.4,54.6954,-1115.31,0,0
99812.1,57.0841,-1094.54,0,0
101114,60.7409,-1075.78,0,0
102415,59.9603,-1060.61,0,0
103717,57.7391,-1037.97,0,0
105019,60.9495,-1014.41,0,0
106320.175,67.2998,-993.572,0,0
107621.8,73.8201,-975.277,0,0
108923.425,82.0566,-957.946,0,0
110225.05,90.5531,-944.631,0,0
111526.675,97.0215,-933.439,0,0
112828.3,102.714,-923.096,0,0
114129.925,106.758,-914.155,0,0
115431.55,109.34,-906.135,0,0
116733.175,109.56,-897.688,0,0
118034.8,108.199,-887.419,0,0
119336.425,109.329,-874.2,0,0
120638.05,114.562,-869.893,0,0
121939.675,106.993,-863.784,0,0
123241,102,-851.451,0,0
124543,99.1241,-838.412,0,0
125845,98.0403,-826.446,0,0
127146,95.0074,-816.403,0,0
128448,89.8453,-806.118,0,0
129749,81.8282,-791.882,0,0
131051,76.2415,-774.051,0,0
132353,73.2083,-755.096,0,0
133654,71.9464,-736.079,0,0
134956,72.1798,-717.144,0,0
136258,73.6677,-698.505,0,0
137559,75.8577,-680.789,0,0
138860.775,77.7603,-662.249,0,0
140162.4,81.1194,-643.12,0,0
141464.025,86.2934,-624.005,0,0
142765.65,92.1125,-605.841,0,0
144067.275,98.506,-587.656,0,0
145368.9,105.783,-569.197,0,0
146670.525,114.617,-550.458,0,0
147972.15,125.001,-532.037,0,0
149273.775,136.611,-513.933,0,0
150575.4,150.82,-494.764,0,0
151877.025,169.045,-477.345,0,0
153178.65,191.562,-464.17,0,0
154480,213.705,-458.213,0,0
155782,231.866,-454.262,0,0
157084,247.614,-451.365,0,0
158385,262.994,-446.733,0,0
159687,282.037,-446.48,0,0
160988,298.369,-450.067,0,0
162290,307.988,-456.275,0,0
163592,311.031,-457.717,0,0
164893,317.44,-449.576,0,0
166195,333.499,-437.988,0,0
167497,361.764,-435.804,0,0
168798,390.176,-447.86,0,0
170100,413.985,-476.047,0,0
171401.375,415.634,-515.497,0,0
172703.0,393.646,-547.504,0,0
174004.625,360.279,-558.363,0,0
175306.25,329.29,-551.785,0,0
176607.875,307.31,-530.684,0,0
177909.5,297.995,-506.837,0,0
179211.125,296.175,-483.783,0,0
180512.75,299.871,-464.716,0,0
181814.375,303.818,-448.364,0,0
183116.0,306.32,-432.105,0,0
184417.625,309.861,-412.126,0,0
185719.25,316.56,-390.513,0,0
187021,325.337,-366.493,0,0
188322,338.986,-339.186,0,0
189624,358.69,-309.951,0,0
190926,386.596,-279.887,0,0
192227,424.357,-251.239,0,0
193529,471.614,-228.046,0,0
194831,526.358,-212.146,0,0
196132,588.708,-202.764,0,0
197434,661.453,-203.61,0,0
198735,745.879,-219.933,0,0
200037,837.406,-269.421,0,0
201339,912.296,-352.707,0,0
202640.35,954.697,-454.318,0,0
203941.975,969.974,-561.699,0,0
205243.6,955.96,-662.736,0,0
206545.225,921.496,-754.743,0,0
207846.85,863.423,-833.565,0,0
209148.475,790.07,-886.071,0,0
210450.1,719.708,-909.593,0,0
211751.725,660.419,-917.099,0,0
213053.35,609.074,-915.706,0,0
214354.975,573.042,-903.196,0,0
215656.6,551.171,-900.335,0,0
216958.225,525.932,-902.503,0,0
218259.85,500.46,-903.452,0,0
219561,476.131,-904.045,0,0
220863,450.229,-902.806,0,0
222165,427.154,-898.414,0,0
223466,407.651,-893.316,0,0
224768,389.303,-892.431,0,0
226070,367.297,-891.899,0,0
227371,342.382,-889.136,0,0
228673,315.78,-881.134,0,0
229974,292.417,-867.385,0,0
231276,272.285,-851.393,0,0
232578,257.173,-834.831,0,0
233879,243.672,-817.421,0,0
235180.95,234.478,-801.004,0,0
236482.575,226.118,-785.758,0,0
237784.2,219.797,-769.953,0,0
239085.825,216.248,-755.608,0,0
240387.45,214.071,-743.077,0,0
241689.075,212.887,-732.904,0,0
242990.7,211.161,-724.886,0,0
244292.325,207.453,-718.456,0,0
245593.95,201.608,-710.517,0,0
246895.575,195.918,-700.434,0,0
248197.2,192.037,-689.122,0,0
249498.825,190.425,-677.879,0,0
250800,189.876,-669.06,0,0
252102,186.598,-660.615,0,0
253404,183.801,-649.793,0,0
254705,180.452,-638.698,0,0
256007,178.326,-622.988,0,0
257309,180.643,-604.924,0,0
258610,189.154,-586.798,0,0
259912,202.825,-571.946,0,0
261213,220.507,-560.858,0,0
262515,242.725,-555.05,0,0
263817,264.219,-560.297,0,0
265118,280.468,-568.288,0,0
266420,297.81,-579.829,0,0
267721.55,311.382,-602.259,0,0
269023.175,310.286,-628.415,0,0
270324.8,299.594,-647.135,0,0
271626.425,288.842,-659.565,0,0
272928.05,275.875,-668.933,0,0
274229.675,264.565,-677.481,0,0
275531.3,247.747,-685.609,0,0
276832.925,225.815,-687.152,0,0
278134.55,206.048,-677.42,0,0
279436.175,196.649,-663.385,0,0
280737.8,192.268,-654.308,0,0
282039.425,189.313,-644.786,0,0
283341,190.218,-639.366,0,0
284643,189.055,-638.597,0,0
285944,182.376,-638.025,0,0
287246,174.196,-631.84,0,0
288548,168.702,-621.217,0,0
289849,169.175,-609.148,0,0
291151,176.03,-598.938,0,0
292452,187.434,-595.997,0,0
293754,197.279,-601.474,0,0
295056,200.18,-613.572,0,0
296357,193.823,-624.16,0,0
297659,183.854,-628.812,0,0
298960.525,174.606,-630.183,0,0
300262.15,165.312,-629.647,0,0
301563.775,156.677,-627.059,0,0
302865.4,149.179,-623.675,0,0
304167.025,141.722,-619.182,0,0
305468.65,135.68,-613.567,0,0
306770.275,130.91,-607.447,0,0
308071.9,128.001,-601.666,0,0
309373.525,125.375,-597.508,0,0
310675.15,121.957,-593.135,0,0
311976.775,119.036,-588.356,0,0
313278.4,116.951,-583.377,0,0
314580,115.555,-579.292,0,0
315882,114,-575.752,0,0
317183,112.573,-572.482,0,0
318485,111.573,-569.809,0,0
319787,110.038,-568.838,0,0
321088,106.564,-568.478,0,0
322390,100.976,-567.106,0,0
323691,94.2598,-563.173,0,0
324993,88.9983,-557.193,0,0
326295,85.1969,-550.601,0,0
327596,82.2918,-544.122,0,0
328898,79.8299,-537.16,0,0
330200,79.0082,-529.623,0,0
331501.125,80.2302,-523.044,0,0
332802.75,82.0045,-519.186,0,0
334104.375,81.7301,-516.619,0,0
335406.0,80.3199,-513.355,0,0
336707.625,78.4271,-509.197,0,0
338009.25,76.6561,-504.134,0,0
339310.875,75.554,-497.781,0,0
340612.5,76.225,-490.923,0,0
341914.125,78.956,-484.685,0,0
343215.75,83.0671,-480.588,0,0
344517.375,86.8179,-478.852,0,0
345819.0,89.238,-478.607,0,0
347121,89.8558,-478.919,0,0
348422,89.095,-478.65,0,0
349724,87.8973,-477.816,0,0
351025,85.5938,-476.337,0,0
352327,83.5934,-473.137,0,0
353629,82.7541,-469.882,0,0
354930,81.8743,-466.846,0,0
356232,81.3534,-463.489,0,0
357534,81.2906,-460.617,0,0
358835,80.8243,-458.117,0,0
360137,79.6079,-455.188,0,0
361438,78.8507,-451.156,0,0
362740.1,78.9484,-447.435,0,0
364041.725,78.9833,-443.902,0,0
365343.35,79.0297,-440.015,0,0
366644.975,79.4861,-435.544,0,0
367946.6,80.7964,-430.633,0,0
369248.225,83.6007,-425.9,0,0
370549.85,87.8654,-421.726,0,0
371851.475,93.9771,-419.682,0,0
373153.1,99.5209,-421.065,0,0
374454.725,102.446,-424.299,0,0
375756.35,102.842,-427.224,0,0
377057.975,101.93,-428.819,0,0
378359.6,101.476,-429.334,0,0
379661,100.96,-430.465,0,0
380963,99.3718,-431.018,0,0
382264,98.6666,-430.623,0,0
383566,98.5207,-431.519,0,0
384868,97.1668,-433.619,0,0
386169,93.3597,-435.589,0,0
387471,87.9276,-434.906,0,0
388773,83.9872,-431.477,0,0
390074,82.8021,-428.211,0,0
391376,82.0723,-427.019,0,0
392677,79.9,-426.525,0,0
393979,76.6038,-425.678,0,0
395280.7,72.7517,-423.574,0,0
396582.325,68.8044,-420.364,0,0
397883.95,65.4577,-416.088,0,0
399185.575,62.8441,-411.031,0,0
400006.6,61.7815,-407.492,0,0