File: Accelerated corrosion test data/2025-10-03_06-00-02/sample_7.csv
Frequency (Hz),Impedance (ohms),Phase (Radians),Temperature (C),Humidity (%)
10000.0,277.039,-12084.7,0,0
11301.625,248.544,-10690.1,0,0
12603.25,266.552,-9647.98,0,0
13904.875,210.608,-8749.64,0,0
15206.5,201.666,-8006.69,0,0
16508.125,173.426,-7369.53,0,0
17809.75,168.977,-6813.79,0,0
19111.375,186.7,-6381.43,0,0
20413.0,171.065,-5974.43,0,0
21714.625,155.89,-5633.92,0,0
23016.25,132.426,-5314.95,0,0
24317.875,124.576,-5022.93,0,0
25619.5,120.322,-4758.85,0,0
26921.1,124.703,-4513.85,0,0
28222.7,181.185,-4306.3,0,0
29524.4,138.327,-4167.62,0,0
30826,135.819,-3985.44,0,0
32127.6,119.006,-3839.45,0,0
33429.2,103.487,-3688.31,0,0
34730.9,94.1121,-3543.74,0,0
36032.5,89.7379,-3410.24,0,0
37334.1,87.7903,-3286.3,0,0
38635.7,87.805,-3169.73,0,0
39937.4,99.0765,-3069.44,0,0
41239,88.5809,-2982.4,0,0
42540.6,81.3277,-2886.32,0,0
43842.225,80.7334,-2797.88,0,0
45143.85,81.9784,-2720.76,0,0
46445.475,79.1065,-2646.87,0,0
47747.1,72.1773,-2571.22,0,0
49048.725,69.6021,-2501.31,0,0
50350.35,67.6224,-2434.06,0,0
51651.975,65.987,-2370.33,0,0
52953.6,64.9182,-2309.91,0,0
54255.225,63.7666,-2253.18,0,0
55556.85,62.5152,-2198.43,0,0
56858.475,61.7591,-2146.13,0,0
58160.1,60.9937,-2095.83,0,0
59461.7,61.1061,-2048.55,0,0
60763.3,60.6334,-2004.63,0,0
62065,58.5967,-1961.26,0,0
63366.6,57.5664,-1918.69,0,0
64668.2,56.456,-1878,0,0
65969.8,56.6133,-1839.55,0,0
67271.5,54.9133,-1802.77,0,0
68573.1,53.6273,-1765.98,0,0
69874.7,53.1111,-1730.71,0,0
71176.3,52.9031,-1697.14,0,0
72478,51.903,-1664.81,0,0
73779.6,50.9781,-1633,0,0
75081.2,50.4789,-1602.24,0,0
76382.825,49.959,-1572.48,0,0
77684.45,49.6511,-1543.55,0,0
78986.075,49.3859,-1515.62,0,0
80287.7,49.2114,-1488.47,0,0
81589.325,48.9097,-1462.28,0,0
82890.95,48.8268,-1436.6,0,0
84192.575,48.7133,-1411.57,0,0
85494.2,48.9856,-1387.48,0,0
86795.825,48.9041,-1364.12,0,0
88097.45,49.1187,-1341.16,0,0
89399.075,49.1198,-1318.95,0,0
90700.7,49.3453,-1296.84,0,0
92002.3,49.9099,-1275.61,0,0
93303.9,49.9335,-1254.56,0,0
94605.6,52.7603,-1234.54,0,0
95907.2,51.9157,-1217.15,0,0
97208.8,51.2761,-1197.09,0,0
98510.4,52.1357,-1177.68,0,0
99812.1,51.9755,-1159.55,0,0
101114,53.1239,-1140.36,0,0
102415,54.7958,-1122.37,0,0
103717,57.4318,-1105.15,0,0
105019,58.8317,-1090.22,0,0
106320.175,58.4723,-1074.74,0,0
107621.8,59.3297,-1058,0,0
108923.425,60.4411,-1042.34,0,0
110225.05,60.7611,-1026,0,0
111526.675,63.4531,-1008.74,0,0
112828.3,67.28,-992.803,0,0
114129.925,72.4099,-978.948,0,0
115431.55,77.5801,-966.11,0,0
116733.175,85.3583,-955.761,0,0
118034.8,89.4631,-950.88,0,0
119336.425,92.01,-946.696,0,0
120638.05,86.7798,-945.991,0,0
121939.675,76.3489,-936.129,0,0
123241,70.2957,-923.336,0,0
124543,65.5467,-908.807,0,0
125845,62.1104,-895.731,0,0
127146,58.7702,-881.137,0,0
128448,56.8971,-865.833,0,0
129749,55.6958,-851.379,0,0
131051,54.8062,-836.685,0,0
132353,53.8461,-821.733,0,0
133654,54.5688,-806.105,0,0
134956,57.6061,-791.135,0,0
136258,62.1677,-778.538,0,0
137559,63.0924,-770.399,0,0
138860.775,61.7093,-758.653,0,0
140162.4,61.5334,-745.002,0,0
141464.025,62.2242,-731.91,0,0
142765.65,63.2316,-718.285,0,0
144067.275,65.4522,-704.781,0,0
145368.9,67.2878,-692.579,0,0
146670.525,68.2634,-679.467,0,0
147972.15,69.7276,-666.278,0,0
149273.775,71.0947,-652.785,0,0
150575.4,71.879,-637.421,0,0
151877.025,74.0347,-620.271,0,0
153178.65,78.8394,-602.005,0,0
154480,85.7247,-584.141,0,0
155782,95.3749,-566.445,0,0
157084,107.446,-551.026,0,0
158385,120.263,-538.788,0,0
159687,129.655,-530.071,0,0
160988,133.242,-515.21,0,0
162290,143.278,-491.52,0,0
163592,162.722,-468.698,0,0
164893,190.046,-449.91,0,0
166195,219.611,-433.328,0,0
167497,266.175,-420.604,0,0
168798,318.743,-429.869,0,0
170100,361.908,-460.774,0,0
171401.375,396.294,-505.931,0,0
172703.0,406.788,-558.887,0,0
174004.625,386.482,-611.544,0,0
175306.25,347.891,-634.653,0,0
176607.875,324.571,-625.58,0,0
177909.5,331.616,-628.203,0,0
179211.125,333.86,-663.174,0,0
180512.75,298.154,-687.404,0,0
181814.375,261.239,-699.686,0,0
183116.0,218.321,-691.104,0,0
184417.625,187.969,-667.572,0,0
185719.25,172.302,-643.387,0,0
187021,156.385,-618.765,0,0
188322,152.062,-592.526,0,0
189624,147.791,-576.763,0,0
190926,140.272,-553.536,0,0
192227,140.013,-527.977,0,0
193529,142.521,-503.529,0,0
194831,149.221,-478.836,0,0
196132,160.614,-456.933,0,0
197434,173.322,-437.484,0,0
198735,186.045,-419.34,0,0
200037,200.126,-400.098,0,0
201339,219.036,-379.319,0,0
202640.35,243.438,-359.381,0,0
203941.975,274.804,-344.059,0,0
205243.6,311.054,-336.464,0,0
206545.225,349.919,-339.299,0,0
207846.85,378.095,-350.493,0,0
209148.475,405.994,-349.894,0,0
210450.1,457.711,-364.236,0,0
211751.725,496.203,-409.096,0,0
213053.35,507.368,-456.05,0,0
214354.975,508.62,-499.516,0,0
215656.6,495.312,-534.032,0,0
216958.225,487.046,-562.249,0,0
218259.85,464.764,-592.721,0,0
219561,433.925,-609.649,0,0
220863,402.541,-605.698,0,0
222165,387.367,-592.287,0,0
223466,384.449,-580.059,0,0
224768,386.837,-571.607,0,0
226070,396.236,-563.857,0,0
227371,414.864,-568.364,0,0
228673,430.702,-581.81,0,0
229974,442.049,-609.283,0,0
231276,441.314,-641.981,0,0
232578,425.968,-672.135,0,0
233879,403.603,-702.363,0,0
235180.95,358.669,-720.15,0,0
236482.575,320.715,-710.895,0,0
237784.2,297.209,-700.157,0,0
239085.825,273.837,-682.115,0,0
240387.45,268.315,-662.175,0,0
241689.075,263.867,-657.279,0,0
242990.7,250.607,-649.43,0,0
244292.325,242.177,-630.263,0,0
245593.95,247.049,-613.562,0,0
246895.575,251.787,-608.69,0,0
248197.2,252.496,-603.947,0,0
249498.825,255.171,-597.985,0,0
250800,259.565,-595.187,0,0
252102,263.28,-595.008,0,0
253404,266.124,-598.255,0,0
254705,265.23,-604.34,0,0
256007,258.023,-609.07,0,0
257309,248.517,-608.442,0,0
258610,239.667,-603.175,0,0
259912,235.413,-595.146,0,0
261213,232.823,-585.891,0,0
262515,237.04,-574.381,0,0
263817,248.925,-570.593,0,0
265118,256.641,-576.451,0,0
266420,258.596,-580.503,0,0
267721.55,262.071,-585.556,0,0
269023.175,262.518,-592.738,0,0
270324.8,263.113,-597.471,0,0
271626.425,267.176,-607.09,0,0
272928.05,270.357,-627.517,0,0
274229.675,252.273,-656.532,0,0
275531.3,215.859,-669.641,0,0
276832.925,179.448,-661.562,0,0
278134.55,153.644,-640.681,0,0
279436.175,141.977,-616.251,0,0
280737.8,138.58,-596.208,0,0
282039.425,138.301,-582.164,0,0
283341,135.834,-569.421,0,0
284643,135.403,-554.245,0,0
285944,140.295,-540.419,0,0
287246,146.516,-531.557,0,0
288548,150.167,-524.802,0,0
289849,153.872,-515.864,0,0
291151,160.143,-507.413,0,0
292452,167.824,-501.191,0,0
293754,175.902,-496.244,0,0
295056,184.229,-491.971,0,0
296357,194.547,-488.113,0,0
297659,207.657,-486.991,0,0
298960.525,221.667,-490.503,0,0
300262.15,235.195,-497.16,0,0
301563.775,250.178,-508.847,0,0
302865.4,263.424,-531.775,0,0
304167.025,259.409,-562.357,0,0
305468.65,243.985,-583.746,0,0
306770.275,224.343,-597.687,0,0
308071.9,202.966,-603.554,0,0
309373.525,183.494,-603.073,0,0
310675.15,167.5,-598.36,0,0
311976.775,155.002,-591.816,0,0
313278.4,145.254,-585.214,0,0
314580,136.399,-578.232,0,0
315882,129.368,-569.886,0,0
317183,125.181,-561.895,0,0
318485,122.219,-555.479,0,0
319787,119.605,-549.356,0,0
321088,118.444,-544.43,0,0
322390,116.762,-540.98,0,0
323691,114.413,-538.016,0,0
324993,111.688,-534.811,0,0
326295,109.117,-531.435,0,0
327596,106.718,-528.637,0,0
328898,103.715,-526.153,0,0
330200,100.389,-523.144,0,0
331501.125,97.092,-520.282,0,0
332802.75,93.1953,-517.74,0,0
334104.375,88.2236,-514.221,0,0
335406.0,83.4741,-509.393,0,0
336707.625,79.2434,-503.782,0,0
338009.25,75.6075,-497.352,0,0
339310.875,73.155,-490.65,0,0
340612.5,71.3994,-484.194,0,0
341914.125,70.1559,-477.62,0,0
343215.75,69.7985,-471.166,0,0
344517.375,70.1851,-465.111,0,0
345819.0,71.0781,-459.959,0,0
347121,71.7677,-455.72,0,0
348422,71.798,-451.914,0,0
349724,71.1888,-447.522,0,0
351025,70.9786,-442.508,0,0
352327,71.3915,-437.059,0,0
353629,73.1108,-431.925,0,0
354930,75.3232,-428.038,0,0
356232,77.0001,-425.423,0,0
357534,77.3711,-423.123,0,0
358835,76.6436,-419.963,0,0
360137,76.3542,-415.178,0,0
361438,77.5161,-409.982,0,0
362740.1,79.6905,-405.421,0,0
364041.725,82.375,-401.673,0,0
365343.35,85.1011,-398.69,0,0
366644.975,87.7393,-396.544,0,0
367946.6,89.7157,-394.703,0,0
369248.225,91.8516,-393.149,0,0
370549.85,93.1831,-392.687,0,0
371851.475,92.4497,-391.74,0,0
373153.1,91.6584,-388.596,0,0
374454.725,92.2019,-384.855,0,0
375756.35,93.3756,-381.434,0,0
377057.975,94.8841,-378.121,0,0
378359.6,96.4115,-374.867,0,0
379661,98.5547,-371.263,0,0
380963,101.307,-368.213,0,0
382264,104.14,-365.588,0,0
383566,107.276,-363.306,0,0
384868,110.271,-361.522,0,0
386169,113.043,-360.014,0,0
387471,115.582,-357.984,0,0
388773,118.74,-355.88,0,0
390074,122.731,-353.834,0,0
391376,127.03,-352.864,0,0
392677,131.069,-352.186,0,0
393979,135.445,-351.278,0,0
395280.7,140.92,-350.82,0,0
396582.325,147.445,-351.578,0,0
397883.95,154.977,-354.251,0,0
399185.575,162.082,-360.76,0,0
400006.6,165.033,-366.583,0,0