File: Accelerated corrosion test data/2025-10-03_06-00-02/sample_6.csv
Frequency (Hz),Impedance (ohms),Phase (Radians),Temperature (C),Humidity (%)
10000.0,4292.95,-6443.53,0,0
11301.625,3664.69,-6088.01,0,0
12603.25,3161.73,-5742.47,0,0
13904.875,2753.16,-5424.45,0,0
15206.5,2418.14,-5124.93,0,0
16508.125,2139.99,-4848.84,0,0
17809.75,1908.29,-4596.98,0,0
19111.375,1713.7,-4363.38,0,0
20413.0,1545.43,-4152.18,0,0
21714.625,1401.76,-3955.22,0,0
23016.25,1282.52,-3769.32,0,0
24317.875,1174.81,-3612.29,0,0
25619.5,1079.36,-3458.41,0,0
26921.1,995.634,-3314.71,0,0
28222.7,924.599,-3183.86,0,0
29524.4,858.66,-3058.9,0,0
30826,802.948,-2945.15,0,0
32127.6,752.55,-2835.11,0,0
33429.2,712.974,-2736.13,0,0
34730.9,672.381,-2648.66,0,0
36032.5,635.191,-2566.45,0,0
37334.1,596.36,-2485.98,0,0
38635.7,561.805,-2407.08,0,0
39937.4,532.83,-2331.64,0,0
41239,506.328,-2260.93,0,0
42540.6,483.266,-2195.14,0,0
43842.225,462.448,-2128.98,0,0
45143.85,445.383,-2066.08,0,0
46445.475,434.891,-2010.77,0,0
47747.1,422.882,-1960.68,0,0
49048.725,414.834,-1917.11,0,0
50350.35,396.784,-1884.5,0,0
51651.975,372.581,-1842.09,0,0
52953.6,355.054,-1797.5,0,0
54255.225,337.218,-1755.38,0,0
55556.85,321.154,-1713.98,0,0
56858.475,307.802,-1667.55,0,0
58160.1,303.187,-1629,0,0
59461.7,294.345,-1596.99,0,0
60763.3,281.554,-1564.63,0,0
62065,267.789,-1528.93,0,0
63366.6,263.324,-1490.41,0,0
64668.2,256.92,-1465.37,0,0
65969.8,247.588,-1435.16,0,0
67271.5,236.187,-1406.63,0,0
68573.1,226.472,-1374.23,0,0
69874.7,219.353,-1341.85,0,0
71176.3,215.44,-1309.91,0,0
72478,213.831,-1280.54,0,0
73779.6,213.868,-1254.31,0,0
75081.2,212.448,-1230.28,0,0
76382.825,211.149,-1207.5,0,0
77684.45,209.708,-1184.68,0,0
78986.075,209.722,-1163.79,0,0
80287.7,209.319,-1145.27,0,0
81589.325,207.105,-1128.12,0,0
82890.95,203.507,-1110.96,0,0
84192.575,198.834,-1093.09,0,0
85494.2,194.997,-1073.45,0,0
86795.825,192.955,-1054.45,0,0
88097.45,190.888,-1036.65,0,0
89399.075,189.413,-1018.9,0,0
90700.7,188.883,-1002.3,0,0
92002.3,186.316,-987.136,0,0
93303.9,184.875,-970.075,0,0
94605.6,184.945,-952.264,0,0
95907.2,186.981,-938.516,0,0
97208.8,186.197,-926.749,0,0
98510.4,183.94,-910.212,0,0
99812.1,190.442,-896.626,0,0
101114,190.904,-892.551,0,0
102415,186.953,-882.117,0,0
103717,184.292,-876.463,0,0
105019,172.477,-869.764,0,0
106320.175,158.667,-850.393,0,0
107621.8,155.354,-826.636,0,0
108923.425,158.405,-807.833,0,0
110225.05,160.929,-792.201,0,0
111526.675,163.947,-777.006,0,0
112828.3,168.02,-763.593,0,0
114129.925,173.554,-752.199,0,0
115431.55,177.069,-742.98,0,0
116733.175,181.84,-735.625,0,0
118034.8,180.369,-730.086,0,0
119336.425,179.915,-717.771,0,0
120638.05,187.876,-706.273,0,0
121939.675,193.333,-709.271,0,0
123241,187.347,-706.021,0,0
124543,183.226,-700.148,0,0
125845,178.053,-692.283,0,0
127146,172.779,-682.379,0,0
128448,171.047,-669.508,0,0
129749,173.544,-660.089,0,0
131051,173.721,-654.162,0,0
132353,171.972,-648.738,0,0
133654,167.775,-643.243,0,0
134956,161.751,-635.326,0,0
136258,155.707,-624.83,0,0
137559,150.887,-612.481,0,0
138860.775,147.664,-599.054,0,0
140162.4,146.204,-585.348,0,0
141464.025,146.27,-571.662,0,0
142765.65,146.778,-559.055,0,0
144067.275,148.616,-545.638,0,0
145368.9,152.569,-534.981,0,0
146670.525,153.59,-526.129,0,0
147972.15,153.209,-515.985,0,0
149273.775,152.668,-503.817,0,0
150575.4,153.027,-489.47,0,0
151877.025,156.305,-472.71,0,0
153178.65,167.052,-459.009,0,0
154480,173.91,-452.229,0,0
155782,178.801,-441.326,0,0
157084,189.122,-432.704,0,0
158385,195.088,-430.23,0,0
159687,196.929,-425.154,0,0
160988,198.979,-418.427,0,0
162290,200.567,-412.055,0,0
163592,201.632,-403.756,0,0
164893,201.118,-394.463,0,0
166195,202.842,-381.766,0,0
167497,206.421,-370.241,0,0
168798,210.469,-358.142,0,0
170100,215.251,-346.727,0,0
171401.375,219.545,-334.751,0,0
172703.0,224.346,-322.1,0,0
174004.625,229.082,-308.634,0,0
175306.25,234.047,-292.964,0,0
176607.875,241.092,-274.86,0,0
177909.5,251.471,-255.104,0,0
179211.125,265.918,-234.189,0,0
180512.75,286.094,-215.119,0,0
181814.375,309.266,-200.161,0,0
183116.0,333.077,-189.611,0,0
184417.625,356.799,-180.978,0,0
185719.25,379.016,-177.562,0,0
187021,394.055,-174.193,0,0
188322,403.458,-160.81,0,0
189624,419.164,-134.639,0,0
190926,451.085,-100.015,0,0
192227,503.395,-71.2597,0,0
193529,565.626,-52.836,0,0
194831,642.585,-45.8617,0,0
196132,727.168,-61.0105,0,0
197434,810.065,-97.5059,0,0
198735,887.048,-150.483,0,0
200037,959.15,-223.591,0,0
201339,1018.86,-316.243,0,0
202640.35,1057.37,-435.813,0,0
203941.975,1049.38,-563.953,0,0
205243.6,1008.33,-673.676,0,0
206545.225,945.67,-761.476,0,0
207846.85,873.9,-822.226,0,0
209148.475,805.067,-860.911,0,0
210450.1,744.988,-887.707,0,0
211751.725,689.542,-914.539,0,0
213053.35,623.518,-935.254,0,0
214354.975,557.557,-938.062,0,0
215656.6,499.401,-928.303,0,0
216958.225,451.235,-912.099,0,0
218259.85,410.915,-893.047,0,0
219561,376.888,-872.218,0,0
220863,348.559,-850.936,0,0
222165,324.216,-829.206,0,0
223466,304.273,-806.38,0,0
224768,289.309,-782.915,0,0
226070,280.5,-760.175,0,0
227371,277.987,-741.645,0,0
228673,277.822,-731.33,0,0
229974,273.014,-727.208,0,0
231276,262.092,-722.061,0,0
232578,249.287,-712.78,0,0
233879,237.992,-699.901,0,0
235180.95,229.669,-685.211,0,0
236482.575,224.248,-670.577,0,0
237784.2,220.925,-656.429,0,0
239085.825,219.396,-642.955,0,0
240387.45,219.252,-630.495,0,0
241689.075,220.202,-618.871,0,0
242990.7,222.174,-607.688,0,0
244292.325,225.437,-596.997,0,0
245593.95,230.057,-586.765,0,0
246895.575,237.031,-576.613,0,0
248197.2,247.585,-568.53,0,0
249498.825,259.944,-564.93,0,0
250800,271.095,-564.346,0,0
252102,284.354,-564.344,0,0
253404,301.472,-570.675,0,0
254705,316.615,-586.809,0,0
256007,322.957,-610.444,0,0
257309,319.032,-634.609,0,0
258610,307.161,-655.328,0,0
259912,290.197,-670.874,0,0
261213,270.514,-680.825,0,0
262515,250.57,-684.978,0,0
263817,232.368,-685.208,0,0
265118,215.606,-682.868,0,0
266420,200.582,-678.751,0,0
267721.55,187.236,-673.161,0,0
269023.175,175.585,-666.878,0,0
270324.8,164.952,-660.328,0,0
271626.425,155.416,-653.494,0,0
272928.05,146.697,-646.201,0,0
274229.675,138.812,-638.741,0,0
275531.3,131.564,-631,0,0
276832.925,125.274,-623.13,0,0
278134.55,119.605,-615.177,0,0
279436.175,114.787,-606.945,0,0
280737.8,111.246,-598.636,0,0
282039.425,108.896,-591.426,0,0
283341,106.319,-585.047,0,0
284643,103.952,-578.563,0,0
285944,102.212,-572.411,0,0
287246,100.806,-567.312,0,0
288548,98.6465,-562.406,0,0
289849,96.7889,-557.213,0,0
291151,95.2354,-552.339,0,0
292452,93.9003,-547.938,0,0
293754,92.4282,-544.101,0,0
295056,90.2442,-540.633,0,0
296357,87.2388,-536.713,0,0
297659,84.0984,-531.587,0,0
298960.525,82.1937,-525.48,0,0
300262.15,81.806,-520.087,0,0
301563.775,81.4556,-515.758,0,0
302865.4,80.7508,-511.915,0,0
304167.025,79.752,-507.911,0,0
305468.65,79.0151,-503.635,0,0
306770.275,79.315,-499.704,0,0
308071.9,79.3443,-497.214,0,0
309373.525,78.5033,-494.786,0,0
310675.15,77.3914,-492.236,0,0
311976.775,75.9654,-489.656,0,0
313278.4,74.3231,-486.958,0,0
314580,72.6622,-483.994,0,0
315882,71.0945,-480.813,0,0
317183,69.6654,-477.718,0,0
318485,68.1902,-474.604,0,0
319787,66.5136,-471.447,0,0
321088,64.8605,-468.054,0,0
322390,63.4935,-464.416,0,0
323691,62.4157,-460.95,0,0
324993,61.3296,-457.615,0,0
326295,60.2043,-454.255,0,0
327596,59.0459,-450.815,0,0
328898,58.0762,-447.374,0,0
330200,57.2307,-443.949,0,0
331501.125,56.4019,-440.504,0,0
332802.75,55.6042,-437.103,0,0
334104.375,54.964,-433.667,0,0
335406.0,54.5031,-430.247,0,0
336707.625,54.1477,-427.021,0,0
338009.25,53.8062,-423.901,0,0
339310.875,53.4258,-420.737,0,0
340612.5,53.1178,-417.546,0,0
341914.125,52.9923,-414.404,0,0
343215.75,53.1525,-411.459,0,0
344517.375,53.2845,-409.245,0,0
345819.0,52.5667,-406.943,0,0
347121,51.9011,-404.096,0,0
348422,51.4077,-401.117,0,0
349724,51.1882,-398.15,0,0
351025,50.9975,-395.29,0,0
352327,51.0098,-392.444,0,0
353629,51.0876,-389.838,0,0
354930,51.0467,-387.355,0,0
356232,50.8829,-384.832,0,0
357534,50.8015,-382.194,0,0
358835,50.956,-379.666,0,0
360137,51.1615,-377.43,0,0
361438,51.0741,-375.358,0,0
362740.1,50.8223,-373.226,0,0
364041.725,50.4242,-370.942,0,0
365343.35,50.1595,-368.548,0,0
366644.975,49.9803,-366.11,0,0
367946.6,49.7983,-363.682,0,0
369248.225,49.7485,-361.266,0,0
370549.85,49.7151,-358.81,0,0
371851.475,49.9068,-356.424,0,0
373153.1,50.2042,-354.247,0,0
374454.725,50.4715,-352.602,0,0
375756.35,50.1099,-350.961,0,0
377057.975,49.5544,-349.009,0,0
378359.6,49.0624,-346.928,0,0
379661,48.4206,-344.721,0,0
380963,47.7515,-342.208,0,0
382264,47.3855,-339.345,0,0
383566,47.6623,-336.628,0,0
384868,47.7702,-334.675,0,0
386169,47.401,-332.49,0,0
387471,47.0379,-330.09,0,0
388773,46.7274,-327.525,0,0
390074,46.5181,-324.878,0,0
391376,46.4245,-322.24,0,0
392677,46.3963,-319.572,0,0
393979,46.4488,-316.923,0,0
395280.7,46.5198,-314.228,0,0
396582.325,46.6449,-311.502,0,0
397883.95,46.8397,-308.819,0,0
399185.575,47.1366,-306.091,0,0
400006.6,47.3296,-304.388,0,0