File: Accelerated corrosion test data/2025-10-19_18-00-04/sample_2.csv
Frequency (Hz),Impedance (ohms),Phase (Radians),Temperature (C),Humidity (%)
10000.0,222.321,-11470.2,0,0
11301.625,198.219,-10157.9,0,0
12603.25,178.45,-9119.69,0,0
13904.875,179.962,-8280.76,0,0
15206.5,156.474,-7577.79,0,0
16508.125,140.119,-6980.77,0,0
17809.75,129.591,-6471.28,0,0
19111.375,126.13,-6030.65,0,0
20413.0,116.084,-5645.21,0,0
21714.625,123.742,-5316.52,0,0
23016.25,110.114,-5018.22,0,0
24317.875,100.79,-4751.82,0,0
25619.5,95.8136,-4507.11,0,0
26921.1,93.3652,-4287.98,0,0
28222.7,89.0049,-4087.87,0,0
29524.4,93.2836,-3903.74,0,0
30826,86.3616,-3748.52,0,0
32127.6,81.1048,-3594.07,0,0
33429.2,78.9366,-3455.11,0,0
34730.9,75.0592,-3324.31,0,0
36032.5,72.226,-3202.4,0,0
37334.1,70.2419,-3088.68,0,0
38635.7,68.0216,-2983.24,0,0
39937.4,66.199,-2883.89,0,0
41239,65.042,-2790.93,0,0
42540.6,63.7679,-2704.01,0,0
43842.225,62.5054,-2621.66,0,0
45143.85,61.4866,-2543.82,0,0
46445.475,60.4687,-2471.12,0,0
47747.1,60.1357,-2401.17,0,0
49048.725,59.6197,-2337.73,0,0
50350.35,57.5228,-2274.98,0,0
51651.975,56.0867,-2215.95,0,0
52953.6,54.4807,-2158.23,0,0
54255.225,53.9153,-2103.41,0,0
55556.85,53.5813,-2051.15,0,0
56858.475,53.5082,-2001.21,0,0
58160.1,53.6344,-1953.86,0,0
59461.7,54.3653,-1907.76,0,0
60763.3,55.7706,-1865.03,0,0
62065,58.5015,-1827.05,0,0
63366.6,55.7976,-1789.21,0,0
64668.2,52.6667,-1751.82,0,0
65969.8,50.4942,-1712.57,0,0
67271.5,51.1307,-1674.59,0,0
68573.1,53.6216,-1640.85,0,0
69874.7,55.9168,-1610.5,0,0
71176.3,52.9137,-1582.57,0,0
72478,47.4976,-1551.59,0,0
73779.6,44.8074,-1518.35,0,0
75081.2,44.9978,-1486.08,0,0
76382.825,46.827,-1455.79,0,0
77684.45,49.545,-1427.57,0,0
78986.075,52.6783,-1403.18,0,0
80287.7,51.735,-1381.66,0,0
81589.325,48.9899,-1356.52,0,0
82890.95,47.747,-1330.64,0,0
84192.575,48.619,-1305.98,0,0
85494.2,49.1739,-1282.24,0,0
86795.825,50.1008,-1259.94,0,0
88097.45,50.5532,-1238.44,0,0
89399.075,51.0114,-1217.52,0,0
90700.7,50.9032,-1196.36,0,0
92002.3,52.5853,-1175.29,0,0
93303.9,55.1513,-1156.94,0,0
94605.6,55.4037,-1140.58,0,0
95907.2,54.7261,-1120.31,0,0
97208.8,57.5935,-1104.17,0,0
98510.4,56.7504,-1089.73,0,0
99812.1,52.8726,-1074.1,0,0
101114,49.8209,-1057.52,0,0
102415,46.787,-1037.11,0,0
103717,45.7776,-1015.73,0,0
105019,49.1392,-995.747,0,0
106320.175,53.8747,-978.531,0,0
107621.8,57.338,-966.951,0,0
108923.425,55.6797,-954.955,0,0
110225.05,52.202,-939.417,0,0
111526.675,50.9839,-921.545,0,0
112828.3,51.2094,-904.171,0,0
114129.925,52.5314,-886.75,0,0
115431.55,55.2186,-870.316,0,0
116733.175,58.2006,-854.372,0,0
118034.8,61.9054,-839.937,0,0
119336.425,66.001,-826.62,0,0
120638.05,69.183,-815.907,0,0
121939.675,69.0608,-804.792,0,0
123241,68.9089,-791.6,0,0
124543,69.1306,-778.44,0,0
125845,69.1426,-764.195,0,0
127146,70.379,-748.842,0,0
128448,73.3292,-734.138,0,0
129749,76.8963,-720.608,0,0
131051,80.9371,-708.592,0,0
132353,82.8431,-697.52,0,0
133654,84.0983,-685.388,0,0
134956,84.4076,-672.487,0,0
136258,85.7543,-658,0,0
137559,87.9604,-643.205,0,0
138860.775,89.9645,-628.577,0,0
140162.4,92.1415,-611.837,0,0
141464.025,97.4757,-592.94,0,0
142765.65,105.796,-576.834,0,0
144067.275,113.882,-560.703,0,0
145368.9,123.549,-544.389,0,0
146670.525,134.354,-528.085,0,0
147972.15,148.753,-511.004,0,0
149273.775,169.631,-494.896,0,0
150575.4,196.796,-487.113,0,0
151877.025,223.016,-492.563,0,0
153178.65,237.958,-506.141,0,0
154480,241.38,-517.66,0,0
155782,242.619,-523.264,0,0
157084,240.722,-527.715,0,0
158385,235.972,-527.928,0,0
159687,232.413,-521.447,0,0
160988,235.396,-513.98,0,0
162290,245.318,-515.594,0,0
163592,238.002,-524.511,0,0
164893,224.35,-523.65,0,0
166195,210.916,-510.754,0,0
167497,201.06,-495.411,0,0
168798,196.132,-473.207,0,0
170100,196.187,-451.019,0,0
171401.375,199.263,-428.349,0,0
172703.0,207.541,-404.942,0,0
174004.625,217.57,-382.79,0,0
175306.25,233.914,-358.448,0,0
176607.875,256.518,-338.392,0,0
177909.5,282.786,-328.419,0,0
179211.125,305.701,-326.208,0,0
180512.75,315.937,-323.48,0,0
181814.375,322.227,-311.329,0,0
183116.0,334.554,-291.634,0,0
184417.625,357.984,-267.657,0,0
185719.25,388.149,-250.889,0,0
187021,420.901,-234.69,0,0
188322,461.565,-226.325,0,0
189624,497.226,-219.302,0,0
190926,543.883,-208.052,0,0
192227,603.379,-205.368,0,0
193529,674.505,-220.016,0,0
194831,742.1,-257.673,0,0
196132,797.14,-309.787,0,0
197434,846.424,-373.227,0,0
198735,880.701,-450.444,0,0
200037,896.044,-535.428,0,0
201339,891.273,-623.575,0,0
202640.35,860.977,-703.367,0,0
203941.975,816.127,-764.078,0,0
205243.6,770.171,-816.506,0,0
206545.225,713.068,-851.332,0,0
207846.85,659.247,-867.097,0,0
209148.475,621.874,-877.167,0,0
210450.1,581.698,-894.171,0,0
211751.725,532.367,-902.331,0,0
213053.35,488.616,-894.78,0,0
214354.975,454.337,-882.364,0,0
215656.6,425.183,-868.328,0,0
216958.225,403.006,-851.626,0,0
218259.85,386.661,-836.216,0,0
219561,374.237,-822.363,0,0
220863,364.559,-809.056,0,0
222165,360.2,-798.381,0,0
223466,356.206,-792.517,0,0
224768,352.495,-787.5,0,0
226070,349.353,-784.273,0,0
227371,347.854,-783.452,0,0
228673,346.415,-788.584,0,0
229974,338.735,-796.425,0,0
231276,327.219,-802.918,0,0
232578,312.636,-808.109,0,0
233879,295.943,-810.089,0,0
235180.95,279.053,-809.236,0,0
236482.575,262.352,-806.304,0,0
237784.2,245.742,-800.86,0,0
239085.825,230.91,-793.963,0,0
240387.45,216.387,-785.283,0,0
241689.075,204.168,-774.633,0,0
242990.7,195.197,-763.895,0,0
244292.325,188.515,-755.256,0,0
245593.95,181.561,-749.594,0,0
246895.575,170.222,-745.757,0,0
248197.2,156.252,-737.092,0,0
249498.825,143.082,-724.912,0,0
250800,132.081,-709.171,0,0
252102,125.116,-691.282,0,0
253404,122.285,-674.438,0,0
254705,121.125,-658.512,0,0
256007,122.209,-642.888,0,0
257309,125.851,-628.576,0,0
258610,131.056,-616.336,0,0
259912,137.634,-605.75,0,0
261213,145.223,-597.506,0,0
262515,152.943,-591.849,0,0
263817,160.142,-588.063,0,0
265118,167.023,-586.116,0,0
266420,172.079,-586.054,0,0
267721.55,175.959,-586.336,0,0
269023.175,177.54,-587.841,0,0
270324.8,176.945,-586.185,0,0
271626.425,177.94,-582.538,0,0
272928.05,181.889,-577.132,0,0
274229.675,191.455,-573.634,0,0
275531.3,204.697,-577.317,0,0
276832.925,213.629,-591.728,0,0
278134.55,211.64,-607.984,0,0
279436.175,203.232,-619.879,0,0
280737.8,192.459,-627.299,0,0
282039.425,181.005,-632.967,0,0
283341,166.007,-635.04,0,0
284643,152.924,-631.549,0,0
285944,139.813,-627.326,0,0
287246,125.859,-617.746,0,0
288548,116.45,-600.633,0,0
289849,118.413,-581.675,0,0
291151,128.465,-568.384,0,0
292452,143.815,-565.414,0,0
293754,151.233,-575.024,0,0
295056,147.656,-579.425,0,0
296357,150.735,-578.346,0,0
297659,152.754,-589.512,0,0
298960.525,143.395,-597.456,0,0
300262.15,132.635,-598.73,0,0
301563.775,124.499,-596.106,0,0
302865.4,119.358,-593.799,0,0
304167.025,113.898,-593.174,0,0
305468.65,106.535,-592.529,0,0
306770.275,98.3128,-589.669,0,0
308071.9,90.7746,-585.312,0,0
309373.525,83.8305,-579.658,0,0
310675.15,78.0486,-573.365,0,0
311976.775,73.3676,-566.664,0,0
313278.4,69.483,-559.99,0,0
314580,66.368,-553.292,0,0
315882,63.8142,-546.808,0,0
317183,61.6712,-540.439,0,0
318485,60.1916,-534.227,0,0
319787,58.9898,-528.411,0,0
321088,57.7595,-522.704,0,0
322390,56.7263,-516.85,0,0
323691,55.9531,-510.81,0,0
324993,56.0504,-504.073,0,0
326295,58.1464,-497.535,0,0
327596,61.4387,-493.489,0,0
328898,63.6297,-490.76,0,0
330200,65.5719,-488.703,0,0
331501.125,67.0131,-487.926,0,0
332802.75,66.5684,-487.954,0,0
334104.375,64.3119,-487.038,0,0
335406.0,61.9763,-484.618,0,0
336707.625,59.7237,-481.494,0,0
338009.25,57.835,-477.836,0,0
339310.875,56.2998,-473.861,0,0
340612.5,55.1979,-469.681,0,0
341914.125,54.311,-465.292,0,0
343215.75,53.9289,-460.727,0,0
344517.375,54.102,-456.132,0,0
345819.0,54.8298,-451.75,0,0
347121,55.9355,-447.684,0,0
348422,57.3636,-443.925,0,0
349724,59.0613,-440.56,0,0
351025,61.1694,-437.875,0,0
352327,62.8205,-436.02,0,0
353629,63.8663,-434.057,0,0
354930,65.0183,-432.031,0,0
356232,66.2427,-429.96,0,0
357534,67.8976,-428.132,0,0
358835,69.737,-427.031,0,0
360137,71.3363,-426.722,0,0
361438,72.1008,-426.951,0,0
362740.1,72.018,-427.1,0,0
364041.725,71.5042,-426.973,0,0
365343.35,70.7308,-426.482,0,0
366644.975,69.7365,-425.459,0,0
367946.6,69.0591,-424.043,0,0
369248.225,69.2203,-422.965,0,0
370549.85,68.7098,-422.869,0,0
371851.475,67.4406,-422.223,0,0
373153.1,66.5015,-421.407,0,0
374454.725,65.1317,-420.801,0,0
375756.35,63.4009,-419.845,0,0
377057.975,61.7348,-418.608,0,0
378359.6,59.9465,-417.477,0,0
379661,57.1687,-416.137,0,0
380963,54.737,-412.603,0,0
382264,54.6309,-409.926,0,0
383566,53.4566,-408.767,0,0
384868,51.2417,-406.854,0,0
386169,49.1144,-404.011,0,0
387471,47.4649,-400.791,0,0
388773,46.1878,-397.229,0,0
390074,45.8453,-393.518,0,0
391376,46.1706,-390.877,0,0
392677,45.5798,-389.215,0,0
393979,43.8442,-386.905,0,0
395280.7,42.1026,-383.304,0,0
396582.325,41.3064,-379.106,0,0
397883.95,41.3256,-374.97,0,0
399185.575,41.8607,-371.187,0,0
400006.6,42.3548,-369.072,0,0