File: Accelerated corrosion test data/2025-10-19_18-00-04/sample_3.csv
Frequency (Hz),Impedance (ohms),Phase (Radians),Temperature (C),Humidity (%)
10000.0,254.422,-11872.5,0,0
11301.625,226.942,-10516.5,0,0
12603.25,205.372,-9438.08,0,0
13904.875,188.114,-8559.21,0,0
15206.5,176.017,-7822.88,0,0
16508.125,163.036,-7224.33,0,0
17809.75,159.113,-6693.66,0,0
19111.375,148.466,-6239.93,0,0
20413.0,162.573,-5837.47,0,0
21714.625,142.218,-5511.54,0,0
23016.25,129.115,-5204.18,0,0
24317.875,121.481,-4924.19,0,0
25619.5,114.842,-4674.51,0,0
26921.1,111.129,-4442.46,0,0
28222.7,105.955,-4232.77,0,0
29524.4,109.721,-4056.55,0,0
30826,102.652,-3882.72,0,0
32127.6,104.069,-3716.57,0,0
33429.2,100.022,-3593.78,0,0
34730.9,88.9242,-3453.63,0,0
36032.5,84.6979,-3324.58,0,0
37334.1,81.4267,-3205.78,0,0
38635.7,78.6603,-3095.1,0,0
39937.4,76.5058,-2991.88,0,0
41239,75.3505,-2894.24,0,0
42540.6,73.93,-2803.87,0,0
43842.225,72.9437,-2717.92,0,0
45143.85,71.4662,-2637.37,0,0
46445.475,70.389,-2560.72,0,0
47747.1,71.4123,-2488.37,0,0
49048.725,69.2235,-2422.2,0,0
50350.35,67.2132,-2356.52,0,0
51651.975,66.873,-2293.73,0,0
52953.6,67.1891,-2233.38,0,0
54255.225,69.9589,-2177.78,0,0
55556.85,67.541,-2130.22,0,0
56858.475,62.1605,-2077.12,0,0
58160.1,61.6472,-2024.76,0,0
59461.7,62.2481,-1975.02,0,0
60763.3,63.6029,-1928.19,0,0
62065,65.638,-1882.84,0,0
63366.6,69.3278,-1838.98,0,0
64668.2,77.9889,-1797.09,0,0
65969.8,93.8127,-1771.28,0,0
67271.5,75.8909,-1745.71,0,0
68573.1,76.1284,-1707.67,0,0
69874.7,76.9656,-1678.43,0,0
71176.3,71.8417,-1647.43,0,0
72478,70.8647,-1614.78,0,0
73779.6,69.2191,-1586.65,0,0
75081.2,65.4213,-1558.4,0,0
76382.825,61.7472,-1529.14,0,0
77684.45,58.974,-1500.1,0,0
78986.075,56.6218,-1471.48,0,0
80287.7,55.0643,-1443.25,0,0
81589.325,53.967,-1415.77,0,0
82890.95,53.2984,-1389.16,0,0
84192.575,53.0097,-1363.34,0,0
85494.2,52.8541,-1338.25,0,0
86795.825,52.9748,-1313.75,0,0
88097.45,53.4361,-1289.73,0,0
89399.075,54.863,-1265.91,0,0
90700.7,56.7388,-1244.14,0,0
92002.3,58.7621,-1223.19,0,0
93303.9,61.3623,-1204.03,0,0
94605.6,62.1762,-1189.33,0,0
95907.2,57.1506,-1170.9,0,0
97208.8,55.7962,-1149.45,0,0
98510.4,55.6553,-1129.37,0,0
99812.1,55.381,-1110.03,0,0
101114,55.1889,-1090.22,0,0
102415,56.7373,-1069.71,0,0
103717,60.2407,-1051.96,0,0
105019,63.6172,-1037.48,0,0
106320.175,63.4985,-1023.33,0,0
107621.8,61.8793,-1007.82,0,0
108923.425,59.8787,-990.738,0,0
110225.05,59.6864,-972.347,0,0
111526.675,61.9167,-954.259,0,0
112828.3,64.2589,-938.353,0,0
114129.925,65.3022,-922.556,0,0
115431.55,67.2046,-905.58,0,0
116733.175,70.6975,-888.74,0,0
118034.8,76.6257,-872.328,0,0
119336.425,83.743,-859.366,0,0
120638.05,90.3419,-853.919,0,0
121939.675,86.5203,-845.382,0,0
123241,87.2061,-831.612,0,0
124543,89.0718,-819.698,0,0
125845,90.9357,-809.24,0,0
127146,90.8224,-799.415,0,0
128448,89.4239,-789.047,0,0
129749,88.4795,-776.347,0,0
131051,89.6266,-764.602,0,0
132353,88.3719,-753.513,0,0
133654,87.331,-741.849,0,0
134956,85.7684,-729.156,0,0
136258,84.0394,-715.845,0,0
137559,83.5598,-700.495,0,0
138860.775,84.9152,-687.223,0,0
140162.4,84.4906,-673.671,0,0
141464.025,83.4324,-659.898,0,0
142765.65,82.3391,-643.624,0,0
144067.275,82.6332,-626.307,0,0
145368.9,84.2366,-608.351,0,0
146670.525,86.6312,-589.392,0,0
147972.15,90.7557,-569.665,0,0
149273.775,97.2179,-548.991,0,0
150575.4,107.462,-529.109,0,0
151877.025,119.804,-511.852,0,0
153178.65,131.651,-498.351,0,0
154480,141.926,-484.921,0,0
155782,150.769,-469.983,0,0
157084,162.417,-452.133,0,0
158385,177.931,-441.909,0,0
159687,182.907,-426.741,0,0
160988,196.278,-401.658,0,0
162290,220.103,-373.83,0,0
163592,254.927,-350.295,0,0
164893,303.118,-337.543,0,0
166195,354.428,-348.214,0,0
167497,395.751,-377.359,0,0
168798,417.463,-413.082,0,0
170100,416.901,-452.246,0,0
171401.375,408.362,-465.271,0,0
172703.0,407.065,-471.764,0,0
174004.625,413.906,-482.206,0,0
175306.25,419.289,-496.604,0,0
176607.875,419.344,-522.843,0,0
177909.5,391.831,-542.541,0,0
179211.125,367.299,-530.819,0,0
180512.75,365.79,-516.347,0,0
181814.375,371.26,-516.198,0,0
183116.0,365.21,-522.238,0,0
184417.625,352.371,-522.525,0,0
185719.25,336.921,-512.392,0,0
187021,329.749,-491.116,0,0
188322,332.504,-473.99,0,0
189624,335.488,-456.372,0,0
190926,344.845,-440.993,0,0
192227,352.608,-427.236,0,0
193529,365.217,-406.729,0,0
194831,387.108,-391.893,0,0
196132,416.847,-381.757,0,0
197434,443.79,-389.716,0,0
198735,457.602,-402.632,0,0
200037,462.662,-405.678,0,0
201339,471.323,-395.533,0,0
202640.35,495.028,-384.788,0,0
203941.975,526.631,-387.717,0,0
205243.6,551.255,-404.445,0,0
206545.225,563.838,-411.474,0,0
207846.85,586.881,-413.295,0,0
209148.475,622.584,-425.269,0,0
210450.1,652.817,-448.54,0,0
211751.725,679.338,-480.753,0,0
213053.35,701.084,-516.349,0,0
214354.975,713.204,-560.503,0,0
215656.6,717.962,-601.265,0,0
216958.225,718.339,-647.193,0,0
218259.85,704.815,-691.782,0,0
219561,687.616,-727.614,0,0
220863,669.868,-763.388,0,0
222165,642.244,-804.298,0,0
223466,597.298,-829.673,0,0
224768,557.707,-833.547,0,0
226070,534.905,-834.793,0,0
227371,517.401,-843.348,0,0
228673,492.265,-854.376,0,0
229974,466.854,-863.034,0,0
231276,437.698,-867.285,0,0
232578,410.52,-866.487,0,0
233879,385.343,-863.799,0,0
235180.95,362.457,-860.197,0,0
236482.575,337.455,-856.067,0,0
237784.2,312.007,-848.128,0,0
239085.825,288.704,-834.416,0,0
240387.45,269.635,-818.62,0,0
241689.075,253.743,-800.327,0,0
242990.7,244.903,-781.353,0,0
244292.325,239.288,-768.617,0,0
245593.95,231.35,-755.165,0,0
246895.575,226.636,-741.553,0,0
248197.2,222.699,-729.251,0,0
249498.825,222.575,-718.693,0,0
250800,219.972,-712.571,0,0
252102,214.119,-705.677,0,0
253404,207.189,-695.667,0,0
254705,202.051,-681.54,0,0
256007,201.823,-665.499,0,0
257309,207.146,-651.523,0,0
258610,215.253,-639.951,0,0
259912,228.36,-632.857,0,0
261213,244.535,-633.698,0,0
262515,253.726,-647.683,0,0
263817,251.006,-661.588,0,0
265118,241.448,-671.188,0,0
266420,226.845,-675.661,0,0
267721.55,211.69,-671.101,0,0
269023.175,201.837,-662.274,0,0
270324.8,195.718,-651.94,0,0
271626.425,193.602,-642.297,0,0
272928.05,192.443,-634.897,0,0
274229.675,191.997,-626.395,0,0
275531.3,194.832,-617.444,0,0
276832.925,201.941,-611.523,0,0
278134.55,209.884,-611.29,0,0
279436.175,215.574,-616.252,0,0
280737.8,215.899,-624.188,0,0
282039.425,210.891,-630.64,0,0
283341,202.859,-634.156,0,0
284643,194.038,-633.708,0,0
285944,186.212,-630.163,0,0
287246,180.691,-624.889,0,0
288548,177.176,-619.348,0,0
289849,176.637,-614.687,0,0
291151,175.137,-613.319,0,0
292452,171.372,-611.035,0,0
293754,168.493,-606.112,0,0
295056,168.878,-601.166,0,0
296357,171.087,-599.728,0,0
297659,171.61,-601.274,0,0
298960.525,169.438,-603.74,0,0
300262.15,164.947,-605.714,0,0
301563.775,158.756,-606.128,0,0
302865.4,152.095,-604.371,0,0
304167.025,146.033,-601.09,0,0
305468.65,141.013,-596.66,0,0
306770.275,137.157,-591.982,0,0
308071.9,134.495,-587.349,0,0
309373.525,132.515,-583.603,0,0
310675.15,130.508,-581.015,0,0
311976.775,126.956,-578.873,0,0
313278.4,122.19,-575.38,0,0
314580,117.954,-569.439,0,0
315882,116.395,-562.724,0,0
317183,116.781,-557.548,0,0
318485,117.112,-553.594,0,0
319787,117.363,-550.443,0,0
321088,117.49,-547.411,0,0
322390,118.631,-545.067,0,0
323691,119.84,-544.859,0,0
324993,119.048,-546.285,0,0
326295,115.753,-547.368,0,0
327596,111.303,-546.994,0,0
328898,106.614,-545.225,0,0
330200,102.278,-542.599,0,0
331501.125,98.0655,-539.788,0,0
332802.75,93.5614,-536.299,0,0
334104.375,89.3499,-531.873,0,0
335406.0,85.3232,-526.581,0,0
336707.625,82.2377,-520.632,0,0
338009.25,80.1873,-514.415,0,0
339310.875,78.7585,-508.064,0,0
340612.5,78.511,-501.172,0,0
341914.125,80.1358,-494.962,0,0
343215.75,82.9396,-490.816,0,0
344517.375,85.0248,-488.638,0,0
345819.0,85.6145,-487.23,0,0
347121,84.9421,-485.661,0,0
348422,83.5096,-482.859,0,0
349724,82.7936,-478.684,0,0
351025,83.9598,-474.889,0,0
352327,85.5589,-472.905,0,0
353629,85.9694,-472.118,0,0
354930,84.9796,-471.113,0,0
356232,83.3268,-469.399,0,0
357534,81.4225,-466.551,0,0
358835,80.5766,-462.82,0,0
360137,80.6578,-459.726,0,0
361438,80.3888,-457.1,0,0
362740.1,79.9103,-453.964,0,0
364041.725,80.6538,-450.472,0,0
365343.35,82.1188,-448.311,0,0
366644.975,83.0657,-447.839,0,0
367946.6,81.7179,-447.703,0,0
369248.225,79.0722,-445.338,0,0
370549.85,78.4702,-441.094,0,0
371851.475,80.0975,-438.513,0,0
373153.1,80.1931,-438.177,0,0
374454.725,78.3299,-436.806,0,0
375756.35,76.647,-433.891,0,0
377057.975,75.9862,-430.412,0,0
378359.6,76.2295,-426.991,0,0
379661,77.2363,-424.528,0,0
380963,77.6915,-422.946,0,0
382264,77.7104,-421.298,0,0
383566,77.491,-420.011,0,0
384868,76.5784,-418.586,0,0
386169,75.1575,-416.602,0,0
387471,73.7074,-413.841,0,0
388773,72.5403,-410.204,0,0
390074,72.3794,-405.914,0,0
391376,73.5886,-401.684,0,0
392677,75.79,-398.539,0,0
393979,77.921,-396.523,0,0
395280.7,79.9664,-395.066,0,0
396582.325,81.8795,-394.356,0,0
397883.95,83.2699,-394.455,0,0
399185.575,83.8041,-395.078,0,0
400006.6,83.5112,-395.583,0,0