File: Accelerated corrosion test data/2025-10-19_18-00-04/sample_7.csv
Frequency (Hz),Impedance (ohms),Phase (Radians),Temperature (C),Humidity (%)
10000.0,277.072,-12103.6,0,0
11301.625,249.486,-10706.7,0,0
12603.25,263.982,-9660.04,0,0
13904.875,210.188,-8761.71,0,0
15206.5,198.599,-8021.94,0,0
16508.125,172.852,-7381.22,0,0
17809.75,169.399,-6825.84,0,0
19111.375,180.242,-6378.31,0,0
20413.0,172.728,-5994.57,0,0
21714.625,158.534,-5651.71,0,0
23016.25,130.637,-5324.34,0,0
24317.875,122.837,-5030.72,0,0
25619.5,118.697,-4766.2,0,0
26921.1,120.618,-4520.96,0,0
28222.7,178.685,-4295.59,0,0
29524.4,143.129,-4185.16,0,0
30826,130.318,-3995.31,0,0
32127.6,119.573,-3845.93,0,0
33429.2,101.939,-3696.04,0,0
34730.9,92.5087,-3550.76,0,0
36032.5,88.6955,-3416.66,0,0
37334.1,86.2186,-3292.6,0,0
38635.7,86.9071,-3175.12,0,0
39937.4,100.568,-3075.46,0,0
41239,87.5534,-2989.73,0,0
42540.6,79.983,-2892.97,0,0
43842.225,78.8687,-2803.21,0,0
45143.85,80.2658,-2725.64,0,0
46445.475,77.3035,-2653.75,0,0
47747.1,70.6595,-2576.74,0,0
49048.725,68.0812,-2506.5,0,0
50350.35,66.1753,-2439.21,0,0
51651.975,64.4883,-2375.47,0,0
52953.6,63.7629,-2314.88,0,0
54255.225,62.305,-2258.49,0,0
55556.85,60.9457,-2203.51,0,0
56858.475,60.0693,-2150.94,0,0
58160.1,59.2792,-2100.44,0,0
59461.7,59.3255,-2053.23,0,0
60763.3,58.8602,-2009.23,0,0
62065,56.776,-1965.71,0,0
63366.6,55.4717,-1922.87,0,0
64668.2,54.9396,-1882.14,0,0
65969.8,54.9313,-1843.73,0,0
67271.5,53.2708,-1806.88,0,0
68573.1,51.9435,-1770.12,0,0
69874.7,51.3097,-1734.87,0,0
71176.3,51.0296,-1701.05,0,0
72478,50.1843,-1668.8,0,0
73779.6,49.2098,-1636.94,0,0
75081.2,48.7312,-1606.14,0,0
76382.825,48.1247,-1576.43,0,0
77684.45,47.9356,-1547.47,0,0
78986.075,47.4968,-1519.54,0,0
80287.7,47.4478,-1492.44,0,0
81589.325,47.0435,-1466.26,0,0
82890.95,46.7443,-1440.58,0,0
84192.575,46.6417,-1415.43,0,0
85494.2,46.9313,-1391.33,0,0
86795.825,47.0481,-1368.01,0,0
88097.45,47.1375,-1345.4,0,0
89399.075,46.4767,-1323.1,0,0
90700.7,46.4915,-1300.78,0,0
92002.3,46.6815,-1279.08,0,0
93303.9,47.0158,-1257.12,0,0
94605.6,50.7097,-1237.11,0,0
95907.2,49.5265,-1220.63,0,0
97208.8,48.6593,-1200.21,0,0
98510.4,49.6945,-1181.04,0,0
99812.1,49.8069,-1162.57,0,0
101114,50.7125,-1143.26,0,0
102415,52.5782,-1125.19,0,0
103717,55.1196,-1108.42,0,0
105019,56.2114,-1093.51,0,0
106320.175,55.6479,-1077.69,0,0
107621.8,56.3235,-1060.67,0,0
108923.425,57.4153,-1044.46,0,0
110225.05,58.0408,-1027.36,0,0
111526.675,61.0816,-1010.48,0,0
112828.3,65.9419,-993.864,0,0
114129.925,71.5086,-979.999,0,0
115431.55,77.935,-967.301,0,0
116733.175,86.6062,-958.847,0,0
118034.8,90.9401,-954.603,0,0
119336.425,93.6206,-952.866,0,0
120638.05,86.6723,-953.568,0,0
121939.675,74.82,-943.74,0,0
123241,67.173,-930.556,0,0
124543,62.3986,-915.706,0,0
125845,58.1949,-901.624,0,0
127146,54.5231,-887.128,0,0
128448,52.7073,-871.852,0,0
129749,51.0004,-857.167,0,0
131051,50.0176,-842.851,0,0
132353,48.8532,-827.452,0,0
133654,49.3201,-811.679,0,0
134956,52.5191,-796.752,0,0
136258,56.1284,-785.254,0,0
137559,56.5338,-776.577,0,0
138860.775,53.8752,-764.247,0,0
140162.4,53.7111,-750.152,0,0
141464.025,53.8719,-736.592,0,0
142765.65,54.8044,-722.155,0,0
144067.275,57.5266,-708.327,0,0
145368.9,59.6974,-696.621,0,0
146670.525,60.4797,-683.363,0,0
147972.15,62.0765,-670.398,0,0
149273.775,62.3147,-657.777,0,0
150575.4,62.2992,-642.507,0,0
151877.025,63.6601,-625.219,0,0
153178.65,67.2212,-606.946,0,0
154480,72.7462,-588.622,0,0
155782,80.8142,-569.953,0,0
157084,91.4682,-552.581,0,0
158385,104.515,-538.374,0,0
159687,114.788,-529.241,0,0
160988,118.047,-515.332,0,0
162290,124.839,-492.047,0,0
163592,140.362,-466.812,0,0
164893,163.985,-444.423,0,0
166195,189.678,-419.885,0,0
167497,234.177,-395.526,0,0
168798,294.947,-388.608,0,0
170100,359.973,-410.343,0,0
171401.375,414.214,-461.561,0,0
172703.0,439.279,-532.006,0,0
174004.625,420.054,-609.921,0,0
175306.25,366.171,-642.683,0,0
176607.875,333.113,-632.932,0,0
177909.5,332.627,-628.741,0,0
179211.125,340.936,-658.885,0,0
180512.75,305.087,-687.984,0,0
181814.375,268.482,-700,0,0
183116.0,224.609,-696.29,0,0
184417.625,191.942,-674.24,0,0
185719.25,171.127,-651.642,0,0
187021,154.71,-624.561,0,0
188322,149.16,-598.386,0,0
189624,144.103,-578.888,0,0
190926,137.45,-557.056,0,0
192227,136.265,-532.426,0,0
193529,138.085,-506.946,0,0
194831,144.867,-482.748,0,0
196132,155.719,-461.358,0,0
197434,167.801,-443.842,0,0
198735,177.006,-428.407,0,0
200037,185.116,-409.216,0,0
201339,198.322,-386.04,0,0
202640.35,218.342,-361.427,0,0
203941.975,245.586,-340.668,0,0
205243.6,277.15,-323.018,0,0
206545.225,320.125,-313.446,0,0
207846.85,354.739,-318.28,0,0
209148.475,389.658,-311.266,0,0
210450.1,449.599,-317.861,0,0
211751.725,499.601,-359.975,0,0
213053.35,524.783,-409.847,0,0
214354.975,539.353,-453.929,0,0
215656.6,540.777,-501.873,0,0
216958.225,536.942,-547.022,0,0
218259.85,513.566,-590.836,0,0
219561,473.712,-621.998,0,0
220863,434.77,-621.171,0,0
222165,414.353,-610.543,0,0
223466,407.697,-602.417,0,0
224768,404.201,-598.612,0,0
226070,404.966,-592.517,0,0
227371,415.62,-594.041,0,0
228673,425.588,-605.69,0,0
229974,431.93,-625.003,0,0
231276,431.398,-652.069,0,0
232578,421.789,-678.851,0,0
233879,398.068,-712.008,0,0
235180.95,353.837,-726.753,0,0
236482.575,316.641,-717.687,0,0
237784.2,293.96,-707.402,0,0
239085.825,269.926,-690.614,0,0
240387.45,262.978,-671.196,0,0
241689.075,256.892,-666.795,0,0
242990.7,240.239,-656.512,0,0
244292.325,232.311,-636.473,0,0
245593.95,236.766,-623.265,0,0
246895.575,235.113,-618.109,0,0
248197.2,230.053,-608.584,0,0
249498.825,228.888,-595.799,0,0
250800,231.9,-582.524,0,0
252102,241.178,-571.152,0,0
253404,255.51,-566.911,0,0
254705,267.748,-573.405,0,0
256007,270.391,-583.99,0,0
257309,266.413,-591.482,0,0
258610,260.182,-592.805,0,0
259912,256.512,-593.47,0,0
261213,251.478,-591.612,0,0
262515,249.393,-585.361,0,0
263817,256.591,-581.592,0,0
265118,261.279,-588.349,0,0
266420,260.497,-593.487,0,0
267721.55,259.769,-601.037,0,0
269023.175,251.257,-606.908,0,0
270324.8,246.351,-604.678,0,0
271626.425,250.174,-603.583,0,0
272928.05,258.784,-618.236,0,0
274229.675,247.842,-645.414,0,0
275531.3,217.684,-662.056,0,0
276832.925,181.501,-658.532,0,0
278134.55,154.026,-638.937,0,0
279436.175,141.331,-614.723,0,0
280737.8,137.746,-594.115,0,0
282039.425,137.6,-580.36,0,0
283341,134.391,-566.696,0,0
284643,135.879,-550.353,0,0
285944,142.558,-537.572,0,0
287246,149.92,-530.854,0,0
288548,152.342,-526.86,0,0
289849,153.21,-518.917,0,0
291151,157.287,-508.909,0,0
292452,164.45,-501.248,0,0
293754,172.388,-494.822,0,0
295056,180.952,-489.37,0,0
296357,191.939,-484.516,0,0
297659,205.6,-482.313,0,0
298960.525,220.855,-484.06,0,0
300262.15,237.551,-490.081,0,0
301563.775,255.477,-502.644,0,0
302865.4,271.163,-528.492,0,0
304167.025,267.929,-562.486,0,0
305468.65,251.538,-586.668,0,0
306770.275,230.108,-603.05,0,0
308071.9,206.901,-610.596,0,0
309373.525,184.373,-610.58,0,0
310675.15,166.733,-604.884,0,0
311976.775,153.335,-598.07,0,0
313278.4,141.937,-591.374,0,0
314580,131.441,-583.031,0,0
315882,123.979,-573.103,0,0
317183,119.697,-563.976,0,0
318485,116.741,-556.487,0,0
319787,114.758,-549.576,0,0
321088,113.58,-544.436,0,0
322390,111.835,-540.102,0,0
323691,110.048,-536.051,0,0
324993,108.216,-532.199,0,0
326295,106.975,-528.456,0,0
327596,106.084,-526.193,0,0
328898,103.707,-524.861,0,0
330200,100.529,-523.109,0,0
331501.125,96.7385,-521.353,0,0
332802.75,91.9125,-519.22,0,0
334104.375,86.453,-515.609,0,0
335406.0,81.3895,-510.947,0,0
336707.625,76.624,-505.416,0,0
338009.25,72.5755,-499.073,0,0
339310.875,69.6552,-492.474,0,0
340612.5,67.1961,-485.738,0,0
341914.125,65.3868,-478.735,0,0
343215.75,64.6011,-471.679,0,0
344517.375,64.9881,-465.071,0,0
345819.0,66.1311,-459.671,0,0
347121,66.7546,-455.702,0,0
348422,65.9683,-451.878,0,0
349724,64.8224,-446.84,0,0
351025,64.1187,-441.151,0,0
352327,64.3631,-434.712,0,0
353629,66.2659,-428.64,0,0
354930,68.95,-424.089,0,0
356232,71.3433,-421.241,0,0
357534,72.0111,-419.173,0,0
358835,70.9688,-416.019,0,0
360137,70.2311,-410.915,0,0
361438,70.8939,-404.999,0,0
362740.1,72.9112,-399.268,0,0
364041.725,75.951,-394.199,0,0
365343.35,79.6705,-390.077,0,0
366644.975,83.2766,-387.342,0,0
367946.6,86.4187,-384.922,0,0
369248.225,89.7323,-383.177,0,0
370549.85,92.416,-382.776,0,0
371851.475,92.896,-382.568,0,0
373153.1,92.5519,-380.135,0,0
374454.725,93.6796,-376.799,0,0
375756.35,95.5043,-374.146,0,0
377057.975,97.0208,-372.065,0,0
378359.6,97.9142,-369.3,0,0
379661,99.7123,-365.863,0,0
380963,102.036,-362.931,0,0
382264,104.537,-360.133,0,0
383566,107.394,-357.63,0,0
384868,110.29,-355.354,0,0
386169,112.946,-353.35,0,0
387471,115.757,-351.077,0,0
388773,118.558,-348.302,0,0
390074,122.959,-345.096,0,0
391376,128.238,-343.41,0,0
392677,133.32,-342.359,0,0
393979,138.259,-341.823,0,0
395280.7,143.44,-340.578,0,0
396582.325,150.541,-339.275,0,0
397883.95,160.44,-339.555,0,0
399185.575,172.475,-344.402,0,0
400006.6,179.791,-351.04,0,0