File: Accelerated corrosion test data/2025-10-19_18-00-04/sample_1.csv
Frequency (Hz),Impedance (ohms),Phase (Radians),Temperature (C),Humidity (%)
10000.0,241.781,-12223.8,0,0
11301.625,215.85,-10826.9,0,0
12603.25,195.315,-9724.63,0,0
13904.875,184.439,-8797.1,0,0
15206.5,194.795,-8070.57,0,0
16508.125,155.96,-7441.19,0,0
17809.75,147.374,-6903.46,0,0
19111.375,135.566,-6433.56,0,0
20413.0,162.663,-5990.31,0,0
21714.625,135.673,-5671.67,0,0
23016.25,122.9,-5370.81,0,0
24317.875,112.131,-5077.65,0,0
25619.5,104.95,-4812.49,0,0
26921.1,117.143,-4563.3,0,0
28222.7,112.53,-4360,0,0
29524.4,107.646,-4194.34,0,0
30826,102.33,-4005.22,0,0
32127.6,97.7325,-3848.86,0,0
33429.2,88.8216,-3703.81,0,0
34730.9,82.7232,-3562.08,0,0
36032.5,78.406,-3430.79,0,0
37334.1,75.6496,-3308.39,0,0
38635.7,73.3702,-3194.61,0,0
39937.4,71.5669,-3087.56,0,0
41239,73.109,-2989.03,0,0
42540.6,71.7272,-2896.94,0,0
43842.225,68.1166,-2809.02,0,0
45143.85,68.7548,-2727.35,0,0
46445.475,65.3742,-2650.38,0,0
47747.1,64.6349,-2577.18,0,0
49048.725,62.0621,-2507.03,0,0
50350.35,60.043,-2440.35,0,0
51651.975,59.0038,-2376.8,0,0
52953.6,58.0303,-2315.7,0,0
54255.225,56.9814,-2258.54,0,0
55556.85,55.9727,-2202.96,0,0
56858.475,55.2205,-2149.76,0,0
58160.1,54.9154,-2099.19,0,0
59461.7,54.5268,-2051.24,0,0
60763.3,54.8205,-2005.22,0,0
62065,53.2704,-1961.11,0,0
63366.6,52.7411,-1917.49,0,0
64668.2,53.2915,-1875.29,0,0
65969.8,55.4417,-1837.68,0,0
67271.5,53.9671,-1800.54,0,0
68573.1,53.1498,-1765.05,0,0
69874.7,52.6233,-1730.8,0,0
71176.3,50.6689,-1696.47,0,0
72478,48.8286,-1662.67,0,0
73779.6,48.3613,-1629.25,0,0
75081.2,48.7022,-1596.99,0,0
76382.825,49.5379,-1565.97,0,0
77684.45,50.4268,-1536.37,0,0
78986.075,52.2207,-1508.84,0,0
80287.7,51.2282,-1482.47,0,0
81589.325,50.8523,-1454.56,0,0
82890.95,51.4237,-1427.63,0,0
84192.575,52.912,-1401.3,0,0
85494.2,54.9541,-1376.9,0,0
86795.825,55.8232,-1353.26,0,0
88097.45,56.4055,-1329.87,0,0
89399.075,58.2354,-1305.36,0,0
90700.7,61.4911,-1281.9,0,0
92002.3,67.4742,-1260.26,0,0
93303.9,75.5881,-1243.06,0,0
94605.6,74.5228,-1236.64,0,0
95907.2,67.087,-1217.73,0,0
97208.8,65.3224,-1197.25,0,0
98510.4,65.0235,-1177.12,0,0
99812.1,64.2073,-1157.38,0,0
101114,63.7116,-1137.38,0,0
102415,63.9274,-1115.3,0,0
103717,68.4278,-1094.19,0,0
105019,75.2914,-1077.02,0,0
106320.175,81.702,-1060.73,0,0
107621.8,87.6094,-1048.4,0,0
108923.425,92.0039,-1036.64,0,0
110225.05,94.3755,-1028.57,0,0
111526.675,94.7323,-1015.8,0,0
112828.3,97.5273,-1006.16,0,0
114129.925,96.8038,-998.551,0,0
115431.55,93.3389,-989.733,0,0
116733.175,88.3543,-978.266,0,0
118034.8,83.3981,-963.805,0,0
119336.425,81.5402,-947.952,0,0
120638.05,81.9961,-933.449,0,0
121939.675,80.5242,-920.928,0,0
123241,78.9051,-905.97,0,0
124543,79.0943,-890.847,0,0
125845,80.017,-876.135,0,0
127146,81.0616,-861.732,0,0
128448,83.2728,-847.29,0,0
129749,85.845,-832.931,0,0
131051,90.4977,-819.776,0,0
132353,94.7092,-808.998,0,0
133654,97.8801,-798.326,0,0
134956,101.234,-787.946,0,0
136258,103.854,-777.511,0,0
137559,108.861,-767.734,0,0
138860.775,111.463,-761.679,0,0
140162.4,110.656,-753.778,0,0
141464.025,110.168,-743.538,0,0
142765.65,110.934,-732.412,0,0
144067.275,112.678,-721.486,0,0
145368.9,114.188,-710.421,0,0
146670.525,117.712,-699.966,0,0
147972.15,119.289,-691.886,0,0
149273.775,120.658,-680.212,0,0
150575.4,123.123,-671.943,0,0
151877.025,121.701,-660.956,0,0
153178.65,121.664,-645.899,0,0
154480,125.083,-629.617,0,0
155782,131.908,-612.277,0,0
157084,143.573,-597.457,0,0
158385,156.327,-587.446,0,0
159687,165.802,-575.673,0,0
160988,184.535,-564.991,0,0
162290,202.953,-564.258,0,0
163592,214.33,-565.953,0,0
164893,227.297,-566.072,0,0
166195,241.174,-572.606,0,0
167497,249.315,-583.538,0,0
168798,249.309,-596.146,0,0
170100,240.704,-604.71,0,0
171401.375,231.711,-602.342,0,0
172703.0,229.136,-598.36,0,0
174004.625,225.596,-595.061,0,0
175306.25,224.168,-591.391,0,0
176607.875,222.022,-589.365,0,0
177909.5,218.577,-586.156,0,0
179211.125,214.253,-582.388,0,0
180512.75,208.318,-578.379,0,0
181814.375,201.175,-571.392,0,0
183116.0,194.341,-560.189,0,0
184417.625,189.197,-546.907,0,0
185719.25,187.424,-531.838,0,0
187021,187.559,-516.235,0,0
188322,190.866,-500.321,0,0
189624,194.591,-486.23,0,0
190926,198.319,-470.632,0,0
192227,204.365,-453.225,0,0
193529,213.549,-436.455,0,0
194831,223.783,-419.601,0,0
196132,237.615,-401.953,0,0
197434,254.165,-386.358,0,0
198735,271.372,-371.69,0,0
200037,291.609,-355.138,0,0
201339,316.017,-338.719,0,0
202640.35,350.286,-321.472,0,0
203941.975,394.782,-313.039,0,0
205243.6,446.231,-321.28,0,0
206545.225,491.44,-347.359,0,0
207846.85,522.111,-384.784,0,0
209148.475,538.933,-425.176,0,0
210450.1,538.585,-464.89,0,0
211751.725,524.737,-484.993,0,0
213053.35,521.959,-485.632,0,0
214354.975,537.286,-492.898,0,0
215656.6,546.939,-510.353,0,0
216958.225,556.597,-523.848,0,0
218259.85,568.076,-539.748,0,0
219561,582.981,-556.723,0,0
220863,602.245,-581.056,0,0
222165,620.094,-618.753,0,0
223466,624.814,-664.991,0,0
224768,618.227,-714.391,0,0
226070,598.502,-759.824,0,0
227371,568.321,-803.741,0,0
228673,526.413,-835.724,0,0
229974,481.394,-854.544,0,0
231276,437.415,-860.788,0,0
232578,400.375,-856.964,0,0
233879,372.374,-851.065,0,0
235180.95,347.957,-847.268,0,0
236482.575,324.393,-842.374,0,0
237784.2,300.275,-837.577,0,0
239085.825,276.68,-828.023,0,0
240387.45,257.072,-816.374,0,0
241689.075,240.581,-804.7,0,0
242990.7,225.802,-792.603,0,0
244292.325,213.724,-781.105,0,0
245593.95,201.58,-770.662,0,0
246895.575,189.803,-759.31,0,0
248197.2,179.324,-746.832,0,0
249498.825,170.585,-733.866,0,0
250800,163.647,-721.251,0,0
252102,157.771,-709.314,0,0
253404,152.049,-697.226,0,0
254705,148.094,-684.303,0,0
256007,145.911,-672.575,0,0
257309,144.103,-661.108,0,0
258610,143.306,-649.379,0,0
259912,144.986,-637.531,0,0
261213,149.007,-627.742,0,0
262515,153.772,-620.382,0,0
263817,158.896,-614.82,0,0
265118,164.92,-611.286,0,0
266420,171.299,-611.423,0,0
267721.55,175.005,-617.126,0,0
269023.175,170.646,-624.501,0,0
270324.8,160.466,-626.345,0,0
271626.425,150.383,-621.958,0,0
272928.05,143.479,-613.728,0,0
274229.675,140.105,-604.637,0,0
275531.3,139.465,-596.513,0,0
276832.925,140.528,-589.571,0,0
278134.55,142.674,-585.185,0,0
279436.175,143.072,-582.554,0,0
280737.8,142.986,-579.452,0,0
282039.425,142.724,-577.549,0,0
283341,140.519,-575.074,0,0
284643,138.902,-571.916,0,0
285944,136.187,-568.831,0,0
287246,132.774,-564.008,0,0
288548,130.623,-556.308,0,0
289849,133.046,-549.2,0,0
291151,135.088,-545.774,0,0
292452,135.817,-542.581,0,0
293754,135.324,-538.73,0,0
295056,135.491,-533.088,0,0
296357,137.464,-526.825,0,0
297659,141.597,-521.008,0,0
298960.525,147.643,-516.982,0,0
300262.15,153.502,-515.418,0,0
301563.775,159.478,-514.598,0,0
302865.4,165.953,-516.412,0,0
304167.025,170.088,-519.627,0,0
305468.65,173.98,-523.019,0,0
306770.275,177.576,-528.304,0,0
308071.9,178.887,-535.322,0,0
309373.525,177.467,-542.161,0,0
310675.15,175.184,-548.172,0,0
311976.775,170.778,-554.749,0,0
313278.4,163.964,-559.08,0,0
314580,157.802,-561.568,0,0
315882,151.381,-564.185,0,0
317183,143.738,-565.878,0,0
318485,135.207,-566.072,0,0
319787,126.804,-564.269,0,0
321088,118.709,-560.917,0,0
322390,111.782,-555.581,0,0
323691,107.032,-549.406,0,0
324993,104.367,-543.581,0,0
326295,102.996,-539.038,0,0
327596,101.83,-535.866,0,0
328898,100.344,-533.516,0,0
330200,98.2206,-531.624,0,0
331501.125,95.6771,-529.975,0,0
332802.75,92.4569,-528.345,0,0
334104.375,88.4328,-526.22,0,0
335406.0,84.3089,-523.037,0,0
336707.625,80.7422,-519.193,0,0
338009.25,77.617,-515.129,0,0
339310.875,74.9463,-511.076,0,0
340612.5,72.4613,-507.014,0,0
341914.125,70.2351,-503.12,0,0
343215.75,67.9921,-499.149,0,0
344517.375,65.9198,-495.06,0,0
345819.0,63.7553,-490.86,0,0
347121,61.7775,-486.405,0,0
348422,60.2889,-481.631,0,0
349724,59.1902,-477.064,0,0
351025,58.281,-472.428,0,0
352327,57.8797,-468.038,0,0
353629,57.5466,-464.023,0,0
354930,57.243,-459.972,0,0
356232,56.9266,-455.988,0,0
357534,56.8407,-452.129,0,0
358835,56.7583,-448.137,0,0
360137,57.0426,-444.338,0,0
361438,57.2065,-440.708,0,0
362740.1,57.4957,-437.021,0,0
364041.725,57.8779,-433.299,0,0
365343.35,58.5672,-429.729,0,0
366644.975,59.2639,-426.57,0,0
367946.6,59.4305,-422.981,0,0
369248.225,60.2118,-418.635,0,0
370549.85,62.0419,-414.314,0,0
371851.475,64.9173,-410.516,0,0
373153.1,68.3813,-408.017,0,0
374454.725,71.4284,-406.683,0,0
375756.35,73.8785,-405.884,0,0
377057.975,76.021,-405.225,0,0
378359.6,77.9957,-404.995,0,0
379661,79.4228,-404.958,0,0
380963,81.1043,-404.769,0,0
382264,82.9467,-405.97,0,0
383566,83.4158,-408.126,0,0
384868,82.2233,-410.207,0,0
386169,79.9054,-411.364,0,0
387471,76.897,-411.437,0,0
388773,74.0092,-410.16,0,0
390074,71.9849,-408.155,0,0
391376,70.7124,-406.567,0,0
392677,69.0073,-405.446,0,0
393979,66.7057,-403.925,0,0
395280.7,64.2323,-401.673,0,0
396582.325,61.9391,-398.686,0,0
397883.95,60.3547,-395.098,0,0
399185.575,59.3522,-391.529,0,0
400006.6,59.0186,-389.34,0,0