File: Accelerated corrosion test data/2025-10-19_18-00-04/sample_8.csv
Frequency (Hz),Impedance (ohms),Phase (Radians),Temperature (C),Humidity (%)
10000.0,309.209,-10980,0,0
11301.625,273.989,-9730.46,0,0
12603.25,252.563,-8738.09,0,0
13904.875,224.371,-7936.52,0,0
15206.5,203.642,-7262.34,0,0
16508.125,188.245,-6695.43,0,0
17809.75,175.033,-6207.81,0,0
19111.375,167.206,-5785.46,0,0
20413.0,160.954,-5423.98,0,0
21714.625,149.09,-5103.77,0,0
23016.25,143.926,-4820,0,0
24317.875,132.011,-4563.15,0,0
25619.5,125.24,-4330.14,0,0
26921.1,120.463,-4119.74,0,0
28222.7,117.396,-3929.14,0,0
29524.4,113.713,-3756.71,0,0
30826,109.413,-3599.2,0,0
32127.6,105.406,-3450.53,0,0
33429.2,105.329,-3313.67,0,0
34730.9,106.584,-3188.93,0,0
36032.5,109.746,-3078.51,0,0
37334.1,105.924,-2979.38,0,0
38635.7,95.5792,-2882.17,0,0
39937.4,87.9551,-2785.12,0,0
41239,85.315,-2694.72,0,0
42540.6,82.1958,-2609.34,0,0
43842.225,81.0965,-2532.21,0,0
45143.85,77.2512,-2457.51,0,0
46445.475,74.5855,-2386.34,0,0
47747.1,72.6052,-2318.68,0,0
49048.725,70.5535,-2255.33,0,0
50350.35,68.7231,-2194.34,0,0
51651.975,67.6489,-2136.09,0,0
52953.6,67.0166,-2081.31,0,0
54255.225,66.3192,-2031.18,0,0
55556.85,63.1682,-1982.03,0,0
56858.475,61.1692,-1933.08,0,0
58160.1,60.224,-1886.47,0,0
59461.7,59.3226,-1842.66,0,0
60763.3,58.1496,-1799.81,0,0
62065,57.6379,-1759.04,0,0
63366.6,58.0952,-1719.46,0,0
64668.2,58.2568,-1683.3,0,0
65969.8,57.3772,-1648.07,0,0
67271.5,55.6161,-1613.47,0,0
68573.1,54.5719,-1579.56,0,0
69874.7,54.3416,-1546.38,0,0
71176.3,54.3458,-1515.1,0,0
72478,54.3277,-1485.21,0,0
73779.6,53.4043,-1456.09,0,0
75081.2,52.5479,-1427.46,0,0
76382.825,52.2381,-1399.48,0,0
77684.45,51.8064,-1372.71,0,0
78986.075,51.101,-1346.29,0,0
80287.7,50.5689,-1320.06,0,0
81589.325,50.7321,-1294.24,0,0
82890.95,51.489,-1269.31,0,0
84192.575,52.9196,-1245.75,0,0
85494.2,52.5129,-1223.88,0,0
86795.825,52.4258,-1200.21,0,0
88097.45,53.2482,-1177.52,0,0
89399.075,54.072,-1154.95,0,0
90700.7,56.2222,-1131.95,0,0
92002.3,60.3853,-1111.99,0,0
93303.9,62.3444,-1092.84,0,0
94605.6,64.5457,-1074.36,0,0
95907.2,66.3055,-1054.9,0,0
97208.8,69.7864,-1035.74,0,0
98510.4,74.8641,-1017.61,0,0
99812.1,79.6206,-1002.99,0,0
101114,84.4361,-989.492,0,0
102415,87.1194,-978.475,0,0
103717,86.8037,-966.556,0,0
105019,85.981,-954.382,0,0
106320.175,85.3276,-939.795,0,0
107621.8,85.6316,-926.449,0,0
108923.425,85.2152,-911.737,0,0
110225.05,87.0271,-898.416,0,0
111526.675,87.5585,-885.686,0,0
112828.3,88.252,-873.645,0,0
114129.925,88.2016,-861.903,0,0
115431.55,87.9635,-850.439,0,0
116733.175,86.2152,-837.85,0,0
118034.8,85.937,-825.146,0,0
119336.425,85.3701,-812.866,0,0
120638.05,84.457,-800.355,0,0
121939.675,83.734,-787.796,0,0
123241,82.9898,-775.282,0,0
124543,81.887,-762.391,0,0
125845,80.8798,-749.123,0,0
127146,80.3226,-735.28,0,0
128448,80.3448,-721.315,0,0
129749,80.4264,-707.698,0,0
131051,81.4286,-692.987,0,0
132353,82.8197,-679.774,0,0
133654,83.5958,-666.54,0,0
134956,84.8267,-652.285,0,0
136258,87.4735,-639.184,0,0
137559,87.4019,-626.829,0,0
138860.775,87.1775,-611.136,0,0
140162.4,89.4426,-594.96,0,0
141464.025,92.0639,-579.103,0,0
142765.65,94.8525,-562.252,0,0
144067.275,99.7669,-544.29,0,0
145368.9,106.885,-525.785,0,0
146670.525,116.086,-508.31,0,0
147972.15,125.894,-493.246,0,0
149273.775,137.295,-473.874,0,0
150575.4,156.382,-455.573,0,0
151877.025,182.55,-448.169,0,0
153178.65,201.089,-451.276,0,0
154480,209.644,-454.199,0,0
155782,223.375,-453.159,0,0
157084,222.728,-465.756,0,0
158385,219.239,-453.775,0,0
159687,228.328,-451.049,0,0
160988,222.575,-448.71,0,0
162290,227.863,-432.353,0,0
163592,238.495,-429.452,0,0
164893,242.87,-428.358,0,0
166195,241.461,-430.943,0,0
167497,230.244,-424.652,0,0
168798,221.19,-408.772,0,0
170100,216.839,-386.223,0,0
171401.375,217.526,-360.901,0,0
172703.0,226.253,-332.517,0,0
174004.625,240.474,-307.907,0,0
175306.25,251.227,-285.559,0,0
176607.875,268.881,-254.842,0,0
177909.5,290.462,-226.683,0,0
179211.125,324.054,-194.452,0,0
180512.75,367.091,-169.968,0,0
181814.375,419.288,-151.99,0,0
183116.0,476.013,-153.619,0,0
184417.625,517.765,-162.878,0,0
185719.25,566.3,-170.377,0,0
187021,610.614,-189.829,0,0
188322,647.767,-208.811,0,0
189624,683.888,-230.365,0,0
190926,720.805,-246,0,0
192227,765.399,-274.928,0,0
193529,811.738,-290.724,0,0
194831,885.019,-338.048,0,0
196132,948.852,-419.229,0,0
197434,979.196,-537.516,0,0
198735,959.093,-660.624,0,0
200037,893.026,-761.197,0,0
201339,814.94,-814.111,0,0
202640.35,731.801,-852.304,0,0
203941.975,655.582,-847.092,0,0
205243.6,602.473,-830.744,0,0
206545.225,562.348,-801.313,0,0
207846.85,553.149,-772.328,0,0
209148.475,551.716,-761.08,0,0
210450.1,552.623,-751.686,0,0
211751.725,562.699,-752.817,0,0
213053.35,569.349,-768.162,0,0
214354.975,568.244,-788.105,0,0
215656.6,561.498,-813.476,0,0
216958.225,542.481,-838.75,0,0
218259.85,518.698,-857.136,0,0
219561,489.678,-871.167,0,0
220863,457.475,-876.643,0,0
222165,431.364,-872.872,0,0
223466,411.09,-866.685,0,0
224768,397.418,-862.44,0,0
226070,386.421,-864.757,0,0
227371,368.732,-871.568,0,0
228673,347.095,-872.269,0,0
229974,327.894,-874.294,0,0
231276,302.518,-875.538,0,0
232578,275.168,-870.717,0,0
233879,246.887,-860.114,0,0
235180.95,222.241,-841.049,0,0
236482.575,206.033,-818.934,0,0
237784.2,195.243,-798.112,0,0
239085.825,189.477,-776.962,0,0
240387.45,189.414,-761.715,0,0
241689.075,188.395,-752.671,0,0
242990.7,182.036,-743.839,0,0
244292.325,176.584,-731.946,0,0
245593.95,173.223,-720.007,0,0
246895.575,172.542,-708.647,0,0
248197.2,171.388,-700.069,0,0
249498.825,169.64,-691.489,0,0
250800,168.58,-681.838,0,0
252102,170.061,-673.355,0,0
253404,172.184,-668.317,0,0
254705,170.725,-665.524,0,0
256007,166.218,-660.613,0,0
257309,161.312,-651.716,0,0
258610,160.374,-639.904,0,0
259912,163.907,-629.263,0,0
261213,168.376,-622.089,0,0
262515,172.39,-616.865,0,0
263817,174.853,-610.326,0,0
265118,179.392,-601.534,0,0
266420,189.77,-591.968,0,0
267721.55,207.442,-587.647,0,0
269023.175,226.949,-594.649,0,0
270324.8,242.63,-609.494,0,0
271626.425,250.871,-634.022,0,0
272928.05,247.624,-661.963,0,0
274229.675,227.94,-688.053,0,0
275531.3,199.215,-698.696,0,0
276832.925,173.289,-697.61,0,0
278134.55,152.017,-689.61,0,0
279436.175,135.857,-677.238,0,0
280737.8,126.823,-662.781,0,0
282039.425,123.128,-651.362,0,0
283341,120.901,-643.214,0,0
284643,118.468,-635.773,0,0
285944,118.371,-628.272,0,0
287246,121.965,-624.723,0,0
288548,122.744,-628.92,0,0
289849,115.117,-633.407,0,0
291151,104.305,-631.991,0,0
292452,94.3286,-627.703,0,0
293754,85.4869,-620.872,0,0
295056,78.1226,-612.427,0,0
296357,73.1662,-603.276,0,0
297659,69.4013,-594.748,0,0
298960.525,66.4746,-586.002,0,0
300262.15,64.7087,-577.183,0,0
301563.775,64.4076,-568.59,0,0
302865.4,65.5906,-561.021,0,0
304167.025,67.4109,-554.996,0,0
305468.65,69.2549,-550.146,0,0
306770.275,70.927,-546.561,0,0
308071.9,72.1739,-543.761,0,0
309373.525,72.4103,-542.233,0,0
310675.15,71.2414,-539.889,0,0
311976.775,70.3966,-537.231,0,0
313278.4,69.1214,-534.992,0,0
314580,67.3218,-532.314,0,0
315882,65.1905,-529.055,0,0
317183,63.764,-525.263,0,0
318485,62.7025,-521.668,0,0
319787,61.8892,-518.087,0,0
321088,61.4291,-515.116,0,0
322390,60.6613,-512.624,0,0
323691,59.2478,-510.538,0,0
324993,57.1184,-508.061,0,0
326295,54.7616,-504.701,0,0
327596,52.9895,-501.027,0,0
328898,51.2769,-497.405,0,0
330200,49.551,-493.485,0,0
331501.125,48.0673,-489.36,0,0
332802.75,46.9156,-484.871,0,0
334104.375,46.3595,-480.369,0,0
335406.0,46.5481,-476.258,0,0
336707.625,46.8234,-472.951,0,0
338009.25,46.6083,-470.147,0,0
339310.875,45.8284,-467.456,0,0
340612.5,44.8514,-464.294,0,0
341914.125,43.7422,-460.811,0,0
343215.75,42.8064,-457.016,0,0
344517.375,42.1603,-452.909,0,0
345819.0,41.9759,-448.743,0,0
347121,42.1433,-444.658,0,0
348422,42.5652,-440.754,0,0
349724,43.2165,-436.973,0,0
351025,44.3101,-433.449,0,0
352327,45.4858,-430.416,0,0
353629,46.5666,-427.709,0,0
354930,47.5558,-425.295,0,0
356232,48.3692,-423.095,0,0
357534,49.0354,-420.969,0,0
358835,49.5702,-418.943,0,0
360137,50.0673,-416.887,0,0
361438,50.4852,-414.911,0,0
362740.1,50.8191,-413.116,0,0
364041.725,51.004,-411.208,0,0
365343.35,51.17,-409.299,0,0
366644.975,51.2631,-407.329,0,0
367946.6,51.3824,-405.306,0,0
369248.225,51.5871,-403.043,0,0
370549.85,52.3556,-400.953,0,0
371851.475,53.2503,-399.772,0,0
373153.1,53.5346,-399.147,0,0
374454.725,52.9204,-398.419,0,0
375756.35,51.6971,-396.917,0,0
377057.975,51.0488,-394.819,0,0
378359.6,50.6004,-393.207,0,0
379661,49.4909,-391.135,0,0
380963,49.4384,-388.159,0,0
382264,50.2407,-386.705,0,0
383566,49.6817,-385.958,0,0
384868,48.2795,-384.711,0,0
386169,46.626,-382.667,0,0
387471,45.1241,-379.911,0,0
388773,44.159,-376.668,0,0
390074,43.8224,-373.454,0,0
391376,43.7464,-370.516,0,0
392677,43.6652,-367.784,0,0
393979,43.5144,-364.974,0,0
395280.7,43.5359,-361.958,0,0
396582.325,43.8778,-359.014,0,0
397883.95,44.2909,-356.322,0,0
399185.575,44.7236,-353.724,0,0
400006.6,44.9716,-352.098,0,0