File: Accelerated corrosion test data/2025-10-19_18-00-04/sample_4.csv
Frequency (Hz),Impedance (ohms),Phase (Radians),Temperature (C),Humidity (%)
10000.0,262.824,-11928.7,0,0
11301.625,233.716,-10568.4,0,0
12603.25,212.986,-9480.99,0,0
13904.875,193.676,-8594.44,0,0
15206.5,180.378,-7866.32,0,0
16508.125,196.708,-7259.3,0,0
17809.75,155.036,-6740.21,0,0
19111.375,145.186,-6281.71,0,0
20413.0,139.877,-5879.03,0,0
21714.625,145.907,-5532.2,0,0
23016.25,124.704,-5231.26,0,0
24317.875,115.95,-4945.86,0,0
25619.5,112.287,-4691.11,0,0
26921.1,106.268,-4460.85,0,0
28222.7,120.323,-4257.4,0,0
29524.4,114.34,-4080.21,0,0
30826,98.942,-3904.25,0,0
32127.6,100.807,-3743.37,0,0
33429.2,90.0802,-3601.62,0,0
34730.9,84.7895,-3462.33,0,0
36032.5,81.6202,-3334.3,0,0
37334.1,79.3446,-3215.03,0,0
38635.7,77.0206,-3102.39,0,0
39937.4,77.2828,-2996.53,0,0
41239,80.2539,-2901,0,0
42540.6,79.1492,-2813.76,0,0
43842.225,73.6465,-2728.94,0,0
45143.85,71.1667,-2647.35,0,0
46445.475,70.9808,-2569.83,0,0
47747.1,69.3869,-2500.16,0,0
49048.725,65.8801,-2430.33,0,0
50350.35,64.4518,-2362.91,0,0
51651.975,63.9309,-2298.3,0,0
52953.6,65.9931,-2234.95,0,0
54255.225,73.886,-2177.5,0,0
55556.85,71.2568,-2134.82,0,0
56858.475,65.4689,-2080.07,0,0
58160.1,66.4702,-2027.67,0,0
59461.7,70.6488,-1977.49,0,0
60763.3,81.2605,-1939.17,0,0
62065,69.6277,-1905.84,0,0
63366.6,64.3414,-1859.77,0,0
64668.2,64.5776,-1816.5,0,0
65969.8,66.7884,-1775.38,0,0
67271.5,69.7614,-1739.05,0,0
68573.1,74.2372,-1710.1,0,0
69874.7,66.2124,-1680.69,0,0
71176.3,64.85,-1645.63,0,0
72478,58.9959,-1613.75,0,0
73779.6,57.6614,-1577.49,0,0
75081.2,59.7547,-1544.3,0,0
76382.825,61.9716,-1515.38,0,0
77684.45,65.6186,-1487.42,0,0
78986.075,64.0193,-1465.08,0,0
80287.7,61.0557,-1438.07,0,0
81589.325,60.7358,-1411.98,0,0
82890.95,59.4392,-1387.09,0,0
84192.575,58.1359,-1362.17,0,0
85494.2,57.1541,-1337.86,0,0
86795.825,56.3255,-1314.01,0,0
88097.45,54.849,-1291.14,0,0
89399.075,53.56,-1266.77,0,0
90700.7,53.5123,-1243.66,0,0
92002.3,53.8213,-1220.37,0,0
93303.9,55.3279,-1199.32,0,0
94605.6,53.7643,-1179.25,0,0
95907.2,53.1454,-1156.86,0,0
97208.8,53.6703,-1135.01,0,0
98510.4,54.9002,-1113.33,0,0
99812.1,57.322,-1092.66,0,0
101114,61.2214,-1073.83,0,0
102415,60.4141,-1058.79,0,0
103717,58.1292,-1036.27,0,0
105019,61.4378,-1012.74,0,0
106320.175,67.9776,-991.929,0,0
107621.8,74.574,-973.688,0,0
108923.425,82.892,-956.706,0,0
110225.05,91.3106,-943.59,0,0
111526.675,97.7765,-932.608,0,0
112828.3,103.199,-922.513,0,0
114129.925,106.985,-913.711,0,0
115431.55,109.249,-905.704,0,0
116733.175,109.272,-897.233,0,0
118034.8,107.667,-886.858,0,0
119336.425,108.609,-873.277,0,0
120638.05,113.884,-868.944,0,0
121939.675,106.224,-862.557,0,0
123241,101.329,-850.085,0,0
124543,98.5221,-837.098,0,0
125845,97.3022,-825.168,0,0
127146,94.0889,-814.905,0,0
128448,88.9314,-804.088,0,0
129749,81.1549,-789.651,0,0
131051,75.9108,-771.685,0,0
132353,73.1095,-752.81,0,0
133654,72.0649,-733.861,0,0
134956,72.4012,-714.948,0,0
136258,73.9969,-696.449,0,0
137559,76.2843,-678.769,0,0
138860.775,78.255,-660.292,0,0
140162.4,81.6413,-641.184,0,0
141464.025,86.8202,-622.208,0,0
142765.65,92.6026,-604.024,0,0
144067.275,99.0789,-585.784,0,0
145368.9,106.47,-567.184,0,0
146670.525,115.511,-548.472,0,0
147972.15,126.048,-530.15,0,0
149273.775,137.877,-512.081,0,0
150575.4,152.305,-493.078,0,0
151877.025,170.722,-475.921,0,0
153178.65,193.27,-463.267,0,0
154480,215.071,-457.573,0,0
155782,233.109,-453.729,0,0
157084,248.664,-450.802,0,0
158385,264.016,-445.74,0,0
159687,283.114,-445.074,0,0
160988,300.123,-449.7,0,0
162290,309.294,-455.792,0,0
163592,312.257,-456.73,0,0
164893,319.131,-448.743,0,0
166195,336.026,-437.88,0,0
167497,364.066,-436.916,0,0
168798,391.797,-450.134,0,0
170100,413.979,-478.901,0,0
171401.375,414.223,-517.861,0,0
172703.0,391.043,-548.084,0,0
174004.625,357.779,-557.731,0,0
175306.25,327.321,-549.959,0,0
176607.875,306.454,-528.171,0,0
177909.5,298.064,-504.513,0,0
179211.125,296.786,-481.792,0,0
180512.75,300.526,-463.127,0,0
181814.375,304.331,-446.828,0,0
183116.0,306.742,-430.191,0,0
184417.625,310.645,-409.876,0,0
185719.25,317.678,-387.743,0,0
187021,327.296,-363.186,0,0
188322,342.077,-335.559,0,0
189624,363.521,-306.344,0,0
190926,393.337,-277.166,0,0
192227,432.824,-250.221,0,0
193529,481.397,-229.336,0,0
194831,537.03,-216.432,0,0
196132,599.418,-210.78,0,0
197434,670.972,-215.752,0,0
198735,752.85,-237.106,0,0
200037,838.481,-290.7,0,0
201339,904.82,-375.269,0,0
202640.35,938.642,-473.562,0,0
203941.975,948.358,-574.302,0,0
205243.6,931.789,-667.284,0,0
206545.225,898.116,-751.927,0,0
207846.85,843.733,-824.173,0,0
209148.475,775.214,-872.899,0,0
210450.1,710.193,-896.03,0,0
211751.725,654.137,-903.958,0,0
213053.35,605.053,-902.592,0,0
214354.975,571.179,-890.426,0,0
215656.6,552.173,-888.422,0,0
216958.225,528.609,-892.761,0,0
218259.85,503.623,-894.797,0,0
219561,480.7,-896.362,0,0
220863,455.632,-896.959,0,0
222165,432.64,-894.545,0,0
223466,412.291,-891.117,0,0
224768,392.736,-891.339,0,0
226070,369.556,-890.958,0,0
227371,344.035,-888.023,0,0
228673,316.564,-879.732,0,0
229974,292.896,-865.321,0,0
231276,273.149,-848.752,0,0
232578,258.186,-831.9,0,0
233879,245.11,-814.354,0,0
235180.95,236.313,-797.605,0,0
236482.575,228.753,-782.465,0,0
237784.2,223.009,-766.994,0,0
239085.825,219.993,-753.214,0,0
240387.45,218.024,-741.474,0,0
241689.075,216.7,-731.97,0,0
242990.7,214.787,-724.475,0,0
244292.325,210.68,-718.381,0,0
245593.95,204.542,-710.468,0,0
246895.575,199.02,-700.403,0,0
248197.2,195.211,-689.455,0,0
249498.825,193.515,-678.608,0,0
250800,192.775,-670.247,0,0
252102,188.931,-662.081,0,0
253404,185.7,-651.357,0,0
254705,181.916,-640.105,0,0
256007,179.583,-623.946,0,0
257309,182.354,-605.562,0,0
258610,191.126,-587.708,0,0
259912,204.942,-572.86,0,0
261213,222.971,-562.272,0,0
262515,245.355,-557.321,0,0
263817,266.23,-563.022,0,0
265118,282.593,-571.623,0,0
266420,299.306,-583.975,0,0
267721.55,311.612,-607.427,0,0
269023.175,308.536,-633.391,0,0
270324.8,296.668,-650.731,0,0
271626.425,285.348,-661.977,0,0
272928.05,272.922,-669.841,0,0
274229.675,262.595,-678.487,0,0
275531.3,245.544,-686.752,0,0
276832.925,223.25,-687.917,0,0
278134.55,203.583,-677.753,0,0
279436.175,194.17,-663.619,0,0
280737.8,189.688,-653.84,0,0
282039.425,187.422,-643.949,0,0
283341,188.371,-638.659,0,0
284643,187.002,-637.674,0,0
285944,180.776,-636.373,0,0
287246,172.885,-630.16,0,0
288548,168.326,-619.246,0,0
289849,169.24,-607.601,0,0
291151,176.438,-597.792,0,0
292452,188.162,-595.384,0,0
293754,198.068,-601.577,0,0
295056,200.306,-614.359,0,0
296357,193.15,-624.881,0,0
297659,182.843,-629.189,0,0
298960.525,173.486,-630.244,0,0
300262.15,164.1,-629.447,0,0
301563.775,155.483,-626.569,0,0
302865.4,148.121,-622.986,0,0
304167.025,140.899,-618.347,0,0
305468.65,134.985,-612.588,0,0
306770.275,130.539,-606.472,0,0
308071.9,127.83,-600.897,0,0
309373.525,125.179,-596.907,0,0
310675.15,121.78,-592.539,0,0
311976.775,118.927,-587.915,0,0
313278.4,116.825,-583.068,0,0
314580,115.348,-579.081,0,0
315882,113.772,-575.622,0,0
317183,112.33,-572.408,0,0
318485,111.162,-569.965,0,0
319787,109.353,-568.987,0,0
321088,105.594,-568.429,0,0
322390,99.8149,-566.976,0,0
323691,93.0475,-562.707,0,0
324993,87.783,-556.409,0,0
326295,84.2627,-549.703,0,0
327596,81.4678,-543.075,0,0
328898,79.2878,-535.906,0,0
330200,78.6757,-528.551,0,0
331501.125,80.0097,-522.05,0,0
332802.75,81.7702,-518.396,0,0
334104.375,81.4451,-515.678,0,0
335406.0,80.0602,-512.438,0,0
336707.625,78.1904,-508.335,0,0
338009.25,76.5028,-503.244,0,0
339310.875,75.2879,-496.855,0,0
340612.5,76.2844,-489.791,0,0
341914.125,79.2857,-483.758,0,0
343215.75,83.5346,-479.897,0,0
344517.375,87.2447,-478.476,0,0
345819.0,89.5336,-478.44,0,0
347121,89.8724,-478.832,0,0
348422,88.9538,-478.514,0,0
349724,87.5272,-477.641,0,0
351025,85.2149,-475.88,0,0
352327,83.2801,-472.611,0,0
353629,82.4531,-469.23,0,0
354930,81.8033,-466.177,0,0
356232,81.367,-462.964,0,0
357534,81.1397,-460.154,0,0
358835,80.6198,-457.519,0,0
360137,79.5047,-454.543,0,0
361438,78.9197,-450.406,0,0
362740.1,79.183,-446.915,0,0
364041.725,79.1556,-443.553,0,0
365343.35,79.0398,-439.587,0,0
366644.975,79.6203,-435.152,0,0
367946.6,81.0224,-430.287,0,0
369248.225,83.9691,-425.478,0,0
370549.85,88.4431,-421.592,0,0
371851.475,94.5115,-419.876,0,0
373153.1,99.9303,-421.618,0,0
374454.725,102.503,-425.112,0,0
375756.35,102.478,-428.038,0,0
377057.975,101.292,-429.393,0,0
378359.6,100.794,-429.852,0,0
379661,100.02,-430.774,0,0
380963,98.4898,-431.085,0,0
382264,97.9083,-430.678,0,0
383566,97.597,-431.814,0,0
384868,95.9665,-433.703,0,0
386169,92.05,-435.497,0,0
387471,86.6326,-434.472,0,0
388773,82.7946,-430.932,0,0
390074,81.6909,-427.483,0,0
391376,81.0095,-426.2,0,0
392677,79.0582,-425.591,0,0
393979,75.8145,-424.754,0,0
395280.7,71.927,-422.662,0,0
396582.325,68.0597,-419.33,0,0
397883.95,64.8798,-414.979,0,0
399185.575,62.4157,-410.005,0,0
400006.6,61.3928,-406.475,0,0