File: Accelerated corrosion test data/2025-10-01_12-27-23/sample_2.csv
Frequency (Hz),Impedance (ohms),Phase (Radians),Temperature (C),Humidity (%)
10000.0,226.659,-11383.7,0,0
11301.625,201.231,-10081.9,0,0
12603.25,181.319,-9051.51,0,0
13904.875,183.58,-8207.58,0,0
15206.5,164.671,-7518.9,0,0
16508.125,141.965,-6929.48,0,0
17809.75,131.172,-6423.12,0,0
19111.375,128.087,-5985.59,0,0
20413.0,117.305,-5604.3,0,0
21714.625,127.602,-5274.16,0,0
23016.25,110.529,-4981.12,0,0
24317.875,101.423,-4716.19,0,0
25619.5,96.2635,-4473.89,0,0
26921.1,94.2282,-4256.36,0,0
28222.7,89.6347,-4057.86,0,0
29524.4,92.6052,-3874.7,0,0
30826,87.0487,-3721.47,0,0
32127.6,81.5117,-3568.13,0,0
33429.2,79.2711,-3430.37,0,0
34730.9,75.3766,-3299.85,0,0
36032.5,72.7652,-3179.24,0,0
37334.1,70.619,-3066.08,0,0
38635.7,68.5245,-2961.45,0,0
39937.4,66.8001,-2862.91,0,0
41239,65.3839,-2770.62,0,0
42540.6,63.9454,-2684.39,0,0
43842.225,62.7653,-2602.43,0,0
45143.85,61.6234,-2525.33,0,0
46445.475,61.0794,-2453.08,0,0
47747.1,60.4604,-2384.21,0,0
49048.725,60.2333,-2320.23,0,0
50350.35,57.7326,-2258.65,0,0
51651.975,56.5062,-2199.62,0,0
52953.6,54.8989,-2142.84,0,0
54255.225,54.0295,-2088.23,0,0
55556.85,53.7176,-2036.39,0,0
56858.475,53.5955,-1986.82,0,0
58160.1,53.988,-1939.81,0,0
59461.7,54.288,-1894.08,0,0
60763.3,55.8117,-1851.74,0,0
62065,58.7891,-1813.33,0,0
63366.6,55.8965,-1776.98,0,0
64668.2,52.6033,-1739.01,0,0
65969.8,50.5534,-1700.16,0,0
67271.5,50.8824,-1662.86,0,0
68573.1,53.2539,-1629.16,0,0
69874.7,55.5029,-1598.46,0,0
71176.3,52.6063,-1570.54,0,0
72478,47.5485,-1540.31,0,0
73779.6,45.0755,-1507.63,0,0
75081.2,45.0048,-1475.52,0,0
76382.825,46.7692,-1445.27,0,0
77684.45,49.3847,-1417.1,0,0
78986.075,52.7471,-1392.75,0,0
80287.7,51.8051,-1371.45,0,0
81589.325,49.0575,-1346.56,0,0
82890.95,47.8706,-1321.07,0,0
84192.575,48.5732,-1296.26,0,0
85494.2,49.3451,-1272.94,0,0
86795.825,50.1275,-1250.93,0,0
88097.45,50.7972,-1229.96,0,0
89399.075,50.8683,-1208.31,0,0
90700.7,51.2507,-1188.07,0,0
92002.3,52.8461,-1166.98,0,0
93303.9,55.7297,-1148.38,0,0
94605.6,54.8394,-1132.24,0,0
95907.2,54.1933,-1112.62,0,0
97208.8,57.2207,-1095.73,0,0
98510.4,57.4909,-1081.83,0,0
99812.1,53.1841,-1067.85,0,0
101114,50.0114,-1049.33,0,0
102415,47.1555,-1029.37,0,0
103717,46.1245,-1008.85,0,0
105019,49.4788,-988.513,0,0
106320.175,54.1454,-971.705,0,0
107621.8,57.4506,-959.633,0,0
108923.425,56.0949,-947.758,0,0
110225.05,52.8853,-932.606,0,0
111526.675,51.6805,-914.976,0,0
112828.3,51.9737,-897.793,0,0
114129.925,53.598,-880.505,0,0
115431.55,56.0686,-864.386,0,0
116733.175,59.2654,-848.809,0,0
118034.8,63.1096,-834.672,0,0
119336.425,67.0249,-822.21,0,0
120638.05,69.7023,-811.981,0,0
121939.675,69.0361,-800.77,0,0
123241,68.6621,-787.974,0,0
124543,68.411,-774.838,0,0
125845,68.215,-760.476,0,0
127146,69.2391,-745.278,0,0
128448,72.1319,-730.515,0,0
129749,75.2655,-717.271,0,0
131051,78.0971,-704.89,0,0
132353,79.8966,-692.945,0,0
133654,80.8396,-679.954,0,0
134956,82.208,-666.069,0,0
136258,83.9719,-651.803,0,0
137559,86.7514,-636.888,0,0
138860.775,89.146,-622.079,0,0
140162.4,91.9171,-605.695,0,0
141464.025,97.0512,-587.347,0,0
142765.65,105.676,-569.582,0,0
144067.275,115.518,-553.789,0,0
145368.9,126.696,-538.253,0,0
146670.525,138.537,-523.657,0,0
147972.15,153.552,-508.193,0,0
149273.775,173.664,-493.651,0,0
150575.4,201.265,-488.452,0,0
151877.025,225.459,-496.786,0,0
153178.65,237.417,-512.007,0,0
154480,237.804,-523.365,0,0
155782,235.049,-528.126,0,0
157084,231.082,-529.246,0,0
158385,227.326,-526.074,0,0
159687,224.064,-519.769,0,0
160988,226.159,-512.112,0,0
162290,234.401,-508.458,0,0
163592,232.949,-517.385,0,0
164893,218.162,-517.522,0,0
166195,202.696,-504.579,0,0
167497,195.036,-485.643,0,0
168798,190.563,-463.926,0,0
170100,192.677,-441.668,0,0
171401.375,196.149,-419.684,0,0
172703.0,204.055,-395.642,0,0
174004.625,216.171,-371.789,0,0
175306.25,234.491,-347.877,0,0
176607.875,257.849,-330.138,0,0
177909.5,286.282,-318.977,0,0
179211.125,306.4,-316.738,0,0
180512.75,318.1,-317.178,0,0
181814.375,322.612,-303.351,0,0
183116.0,336.915,-281.116,0,0
184417.625,360.81,-257.232,0,0
185719.25,396.284,-235.493,0,0
187021,437.248,-226.981,0,0
188322,478.176,-220.206,0,0
189624,518.083,-217.69,0,0
190926,561.83,-213.887,0,0
192227,621.202,-215.564,0,0
193529,689.813,-234.164,0,0
194831,752.635,-278.365,0,0
196132,805.006,-334.791,0,0
197434,844.552,-400.285,0,0
198735,872.054,-473.489,0,0
200037,881.803,-557.528,0,0
201339,875.18,-641.648,0,0
202640.35,840.99,-723.119,0,0
203941.975,787.739,-780.162,0,0
205243.6,738.609,-817.257,0,0
206545.225,685.731,-848.13,0,0
207846.85,636.906,-862.127,0,0
209148.475,598.722,-870.976,0,0
210450.1,558.921,-884.164,0,0
211751.725,512.669,-888.519,0,0
213053.35,472.879,-878.751,0,0
214354.975,440.884,-865.042,0,0
215656.6,416.275,-851.171,0,0
216958.225,395.857,-835.853,0,0
218259.85,381.142,-820.537,0,0
219561,371.135,-807.123,0,0
220863,363.394,-796.658,0,0
222165,358.101,-786.101,0,0
223466,357.151,-779.999,0,0
224768,354.362,-778.651,0,0
226070,350.674,-777.305,0,0
227371,348.52,-778.324,0,0
228673,345.711,-782.759,0,0
229974,338.939,-791.807,0,0
231276,326.139,-799.935,0,0
232578,309.675,-804.694,0,0
233879,292.457,-805.819,0,0
235180.95,276.003,-804.965,0,0
236482.575,258.437,-802.235,0,0
237784.2,241.423,-796.929,0,0
239085.825,225.752,-788.724,0,0
240387.45,211.784,-779.259,0,0
241689.075,200.051,-768.737,0,0
242990.7,191.106,-758.363,0,0
244292.325,183.996,-750.099,0,0
245593.95,175.34,-743.925,0,0
246895.575,164.188,-738.155,0,0
248197.2,150.508,-728.029,0,0
249498.825,138.861,-714.535,0,0
250800,129.85,-698.653,0,0
252102,124.309,-681.969,0,0
253404,121.607,-665.73,0,0
254705,120.655,-650.418,0,0
256007,121.686,-634.915,0,0
257309,125.541,-620.567,0,0
258610,131.437,-608.376,0,0
259912,138.105,-597.981,0,0
261213,146.442,-589.566,0,0
262515,155.507,-584.325,0,0
263817,163.777,-581.572,0,0
265118,171.101,-582.047,0,0
266420,174.532,-583.739,0,0
267721.55,176.871,-584.032,0,0
269023.175,177.448,-584.99,0,0
270324.8,176.03,-582.478,0,0
271626.425,178.266,-576.738,0,0
272928.05,184.623,-572.313,0,0
274229.675,195.252,-570.263,0,0
275531.3,208.978,-577.224,0,0
276832.925,215.965,-594.007,0,0
278134.55,210.731,-611.319,0,0
279436.175,199.789,-622.013,0,0
280737.8,188.196,-628.727,0,0
282039.425,174.795,-633.073,0,0
283341,159.187,-632.806,0,0
284643,147.177,-626.893,0,0
285944,135.581,-622.742,0,0
287246,122.361,-613.101,0,0
288548,113.444,-596.48,0,0
289849,114.935,-576.777,0,0
291151,127.53,-563.991,0,0
292452,140.947,-563.66,0,0
293754,147.617,-571.278,0,0
295056,144.512,-575.615,0,0
296357,148.255,-575.747,0,0
297659,147.986,-587.062,0,0
298960.525,137.695,-592.931,0,0
300262.15,128.492,-593.172,0,0
301563.775,120.181,-590.808,0,0
302865.4,115.451,-587.214,0,0
304167.025,111.453,-586.961,0,0
305468.65,104.345,-587.179,0,0
306770.275,95.283,-584.628,0,0
308071.9,87.4791,-579.248,0,0
309373.525,81.2233,-573.343,0,0
310675.15,75.8217,-566.925,0,0
311976.775,71.4496,-560.059,0,0
313278.4,68.2998,-553.421,0,0
314580,65.5089,-547.274,0,0
315882,63.0084,-541.044,0,0
317183,61.003,-534.666,0,0
318485,59.7247,-528.517,0,0
319787,58.8562,-523.002,0,0
321088,57.7696,-517.551,0,0
322390,56.8344,-512.15,0,0
323691,55.8729,-506.494,0,0
324993,55.7558,-499.859,0,0
326295,57.8107,-493.417,0,0
327596,61.0422,-489.593,0,0
328898,63.1092,-487.135,0,0
330200,64.7621,-485.365,0,0
331501.125,65.5229,-484.479,0,0
332802.75,64.9369,-484.039,0,0
334104.375,62.7937,-482.748,0,0
335406.0,60.4667,-480.178,0,0
336707.625,58.4121,-476.956,0,0
338009.25,56.6452,-473.062,0,0
339310.875,55.3945,-468.936,0,0
340612.5,54.6033,-464.748,0,0
341914.125,54.0494,-460.505,0,0
343215.75,53.927,-456.102,0,0
344517.375,54.2441,-451.788,0,0
345819.0,55.0762,-447.631,0,0
347121,56.2067,-443.845,0,0
348422,57.5612,-440.383,0,0
349724,59.2253,-437.256,0,0
351025,61.1088,-434.856,0,0
352327,62.4459,-432.998,0,0
353629,63.44,-430.947,0,0
354930,64.7267,-428.927,0,0
356232,65.8898,-427.21,0,0
357534,67.3118,-425.514,0,0
358835,68.9239,-424.336,0,0
360137,70.549,-424.011,0,0
361438,71.1564,-424.39,0,0
362740.1,70.9391,-424.486,0,0
364041.725,70.3684,-424.403,0,0
365343.35,69.2805,-423.95,0,0
366644.975,68.0967,-422.902,0,0
367946.6,67.4265,-421.294,0,0
369248.225,67.3588,-420.293,0,0
370549.85,66.7008,-420.009,0,0
371851.475,65.3453,-419.141,0,0
373153.1,64.2136,-418.117,0,0
374454.725,62.9195,-417.245,0,0
375756.35,61.2403,-416.154,0,0
377057.975,59.622,-414.571,0,0
378359.6,58.3313,-413.512,0,0
379661,55.4242,-412.298,0,0
380963,52.9565,-408.633,0,0
382264,52.8422,-405.797,0,0
383566,51.7966,-404.454,0,0
384868,49.8192,-402.378,0,0
386169,47.9631,-399.635,0,0
387471,46.3864,-396.531,0,0
388773,45.1898,-393.003,0,0
390074,44.891,-389.379,0,0
391376,45.215,-386.667,0,0
392677,44.8086,-385.022,0,0
393979,43.1371,-382.723,0,0
395280.7,41.5561,-379.205,0,0
396582.325,40.8661,-375.188,0,0
397883.95,40.8728,-371.194,0,0
399185.575,41.3787,-367.535,0,0
400006.6,41.8167,-365.454,0,0