File: Accelerated corrosion test data/2025-10-01_12-27-23/sample_7.csv
Frequency (Hz),Impedance (ohms),Phase (Radians),Temperature (C),Humidity (%)
10000.0,277.021,-12066.8,0,0
11301.625,248.803,-10675.2,0,0
12603.25,265.702,-9632.64,0,0
13904.875,210.982,-8736.43,0,0
15206.5,200.907,-7995.52,0,0
16508.125,173.756,-7359.02,0,0
17809.75,170.154,-6804.3,0,0
19111.375,186.007,-6371.4,0,0
20413.0,171.913,-5966.68,0,0
21714.625,156.495,-5626.02,0,0
23016.25,132.454,-5307.62,0,0
24317.875,124.358,-5015.56,0,0
25619.5,120.563,-4751.81,0,0
26921.1,124.494,-4508.42,0,0
28222.7,181.78,-4300.66,0,0
29524.4,137.45,-4161.73,0,0
30826,135.889,-3979.53,0,0
32127.6,118.823,-3834.19,0,0
33429.2,103.309,-3682.85,0,0
34730.9,94.4154,-3538.88,0,0
36032.5,89.9269,-3405.56,0,0
37334.1,87.5085,-3282.17,0,0
38635.7,88.0615,-3165.69,0,0
39937.4,98.9316,-3065.19,0,0
41239,88.7268,-2977.99,0,0
42540.6,81.5667,-2882.18,0,0
43842.225,80.8762,-2793.85,0,0
45143.85,82.1064,-2716.82,0,0
46445.475,79.2826,-2643.09,0,0
47747.1,72.147,-2567.84,0,0
49048.725,69.5938,-2497.81,0,0
50350.35,67.6865,-2430.69,0,0
51651.975,66.0048,-2367.07,0,0
52953.6,65.1002,-2306.78,0,0
54255.225,63.8956,-2250.05,0,0
55556.85,62.6419,-2195.35,0,0
56858.475,61.8698,-2143.24,0,0
58160.1,61.0275,-2092.82,0,0
59461.7,61.2321,-2045.55,0,0
60763.3,60.8588,-2001.71,0,0
62065,58.8777,-1958.55,0,0
63366.6,57.6242,-1915.98,0,0
64668.2,56.6025,-1875.43,0,0
65969.8,56.7178,-1836.98,0,0
67271.5,55.0995,-1800.22,0,0
68573.1,53.7671,-1763.49,0,0
69874.7,53.1728,-1728.22,0,0
71176.3,53.0556,-1694.7,0,0
72478,51.9462,-1662.51,0,0
73779.6,51.1453,-1630.68,0,0
75081.2,50.574,-1599.97,0,0
76382.825,50.1585,-1570.27,0,0
77684.45,49.752,-1541.42,0,0
78986.075,49.4825,-1513.43,0,0
80287.7,49.3434,-1486.42,0,0
81589.325,49.093,-1460.1,0,0
82890.95,48.9827,-1434.55,0,0
84192.575,48.9385,-1409.51,0,0
85494.2,49.2298,-1385.42,0,0
86795.825,49.1902,-1362.05,0,0
88097.45,49.4568,-1339.12,0,0
89399.075,49.3726,-1317.07,0,0
90700.7,49.7311,-1295.03,0,0
92002.3,50.2888,-1273.85,0,0
93303.9,50.4187,-1253.16,0,0
94605.6,52.583,-1233.15,0,0
95907.2,52.1135,-1215.27,0,0
97208.8,51.6257,-1195.5,0,0
98510.4,52.4569,-1176.06,0,0
99812.1,52.3134,-1157.95,0,0
101114,53.4039,-1138.89,0,0
102415,54.9713,-1120.95,0,0
103717,57.6614,-1103.72,0,0
105019,59.1718,-1088.97,0,0
106320.175,58.5878,-1073.43,0,0
107621.8,59.5201,-1056.75,0,0
108923.425,60.4887,-1041.29,0,0
110225.05,60.7641,-1024.88,0,0
111526.675,63.4863,-1007.73,0,0
112828.3,67.3287,-991.622,0,0
114129.925,72.5159,-977.821,0,0
115431.55,77.5261,-965.155,0,0
116733.175,85.1192,-954.852,0,0
118034.8,88.9002,-949.934,0,0
119336.425,91.4458,-945.384,0,0
120638.05,86.3014,-944.659,0,0
121939.675,75.8854,-934.765,0,0
123241,69.8789,-921.775,0,0
124543,65.1389,-907.22,0,0
125845,61.8631,-893.951,0,0
127146,58.7303,-879.516,0,0
128448,56.815,-864.374,0,0
129749,55.6369,-849.842,0,0
131051,54.8017,-835.159,0,0
132353,53.944,-820.241,0,0
133654,54.6774,-804.7,0,0
134956,57.5864,-789.873,0,0
136258,62.1673,-777.042,0,0
137559,63.2967,-768.86,0,0
138860.775,61.9436,-757.421,0,0
140162.4,61.692,-743.763,0,0
141464.025,62.3167,-730.738,0,0
142765.65,63.1429,-717.074,0,0
144067.275,65.4434,-703.5,0,0
145368.9,67.3274,-691.188,0,0
146670.525,68.3107,-678.095,0,0
147972.15,69.8338,-664.795,0,0
149273.775,71.3394,-651.304,0,0
150575.4,72.2438,-635.963,0,0
151877.025,74.5707,-618.84,0,0
153178.65,79.5002,-600.687,0,0
154480,86.4366,-582.901,0,0
155782,96.1512,-565.563,0,0
157084,108.159,-550.455,0,0
158385,120.409,-538.483,0,0
159687,129.56,-529.327,0,0
160988,133.253,-514.069,0,0
162290,143.57,-490.32,0,0
163592,163.357,-467.18,0,0
164893,191.107,-448.383,0,0
166195,221.632,-432.655,0,0
167497,268.434,-421.147,0,0
168798,319.755,-431.531,0,0
170100,362.316,-462.94,0,0
171401.375,394.617,-508.35,0,0
172703.0,403.846,-560.022,0,0
174004.625,383.151,-611.078,0,0
175306.25,345.892,-633.738,0,0
176607.875,323.113,-624.328,0,0
177909.5,330.999,-627.438,0,0
179211.125,330.816,-663.312,0,0
180512.75,294.565,-686.093,0,0
181814.375,258.513,-696.684,0,0
183116.0,216.219,-687.135,0,0
184417.625,187.112,-663.992,0,0
185719.25,171.572,-639.718,0,0
187021,156.495,-615.388,0,0
188322,152.051,-589.191,0,0
189624,148.176,-573.256,0,0
190926,141.001,-550.279,0,0
192227,140.973,-524.635,0,0
193529,143.975,-500.311,0,0
194831,150.865,-475.946,0,0
196132,162.3,-454.124,0,0
197434,175.176,-434.852,0,0
198735,188.084,-416.478,0,0
200037,202.535,-397.062,0,0
201339,222.533,-376.454,0,0
202640.35,247.76,-356.953,0,0
203941.975,280.164,-342.676,0,0
205243.6,316.756,-337.096,0,0
206545.225,354.659,-341.423,0,0
207846.85,381.631,-353.784,0,0
209148.475,408.28,-352.239,0,0
210450.1,460.163,-367.851,0,0
211751.725,497.184,-412.955,0,0
213053.35,507.141,-459.13,0,0
214354.975,508.091,-502.763,0,0
215656.6,493.709,-537.311,0,0
216958.225,482.992,-564.257,0,0
218259.85,461.195,-592.611,0,0
219561,430.775,-607.748,0,0
220863,401.241,-603.183,0,0
222165,386.849,-589.745,0,0
223466,384.879,-577.768,0,0
224768,388.059,-569.603,0,0
226070,398.951,-562.454,0,0
227371,417.266,-568.404,0,0
228673,433.036,-582.773,0,0
229974,443.631,-611.286,0,0
231276,441.495,-644.158,0,0
232578,425.754,-674.194,0,0
233879,402.54,-704.248,0,0
235180.95,356.866,-721.66,0,0
236482.575,318.7,-710.885,0,0
237784.2,295.938,-699.559,0,0
239085.825,272.737,-682.499,0,0
240387.45,265.89,-661.535,0,0
241689.075,262.599,-655.044,0,0
242990.7,250.558,-647.295,0,0
244292.325,242.326,-628.727,0,0
245593.95,247.366,-612.062,0,0
246895.575,252.864,-607.041,0,0
248197.2,254.321,-602.833,0,0
249498.825,257.129,-598.087,0,0
250800,261.066,-596.257,0,0
252102,264.076,-596.381,0,0
253404,266.104,-599.9,0,0
254705,264.447,-605.815,0,0
256007,256.65,-609.889,0,0
257309,247.121,-608.475,0,0
258610,238.44,-602.84,0,0
259912,234.242,-594.41,0,0
261213,232.088,-584.864,0,0
262515,236.603,-573.002,0,0
263817,249.431,-569.154,0,0
265118,257.591,-575.613,0,0
266420,259.74,-580.494,0,0
267721.55,263.083,-586.086,0,0
269023.175,262.689,-593.688,0,0
270324.8,263.096,-598.345,0,0
271626.425,266.839,-608.074,0,0
272928.05,269.252,-628.995,0,0
274229.675,250.386,-657.198,0,0
275531.3,213.805,-668.961,0,0
276832.925,178.09,-660.417,0,0
278134.55,153.059,-639.269,0,0
279436.175,141.766,-615.007,0,0
280737.8,138.74,-595.289,0,0
282039.425,138.442,-581.37,0,0
283341,136.347,-568.852,0,0
284643,135.852,-554.003,0,0
285944,140.579,-540.486,0,0
287246,146.477,-531.662,0,0
288548,150.029,-524.629,0,0
289849,153.989,-515.629,0,0
291151,160.427,-507.375,0,0
292452,168.155,-501.394,0,0
293754,175.992,-496.632,0,0
295056,184.368,-492.484,0,0
296357,194.485,-488.714,0,0
297659,207.441,-487.722,0,0
298960.525,221.25,-491.122,0,0
300262.15,234.857,-498.111,0,0
301563.775,249.695,-510.101,0,0
302865.4,262.121,-533.363,0,0
304167.025,257.259,-563.467,0,0
305468.65,241.499,-584.235,0,0
306770.275,221.771,-597.377,0,0
308071.9,200.571,-602.663,0,0
309373.525,181.583,-601.648,0,0
310675.15,166.117,-596.778,0,0
311976.775,154.077,-590.311,0,0
313278.4,144.551,-583.916,0,0
314580,135.768,-577.103,0,0
315882,128.901,-568.842,0,0
317183,124.648,-561.093,0,0
318485,121.556,-554.579,0,0
319787,119.039,-548.445,0,0
321088,117.916,-543.495,0,0
322390,116.315,-540.17,0,0
323691,113.819,-537.165,0,0
324993,111.112,-533.886,0,0
326295,108.62,-530.522,0,0
327596,106.178,-527.739,0,0
328898,103.17,-525.179,0,0
330200,99.8685,-522.141,0,0
331501.125,96.7253,-519.227,0,0
332802.75,92.5973,-516.717,0,0
334104.375,87.7774,-512.995,0,0
335406.0,83.1005,-508.069,0,0
336707.625,78.9223,-502.43,0,0
338009.25,75.4673,-495.929,0,0
339310.875,73.1803,-489.322,0,0
340612.5,71.4398,-482.819,0,0
341914.125,70.3748,-476.291,0,0
343215.75,70.1032,-469.85,0,0
344517.375,70.5639,-463.848,0,0
345819.0,71.6473,-458.792,0,0
347121,72.4279,-454.718,0,0
348422,72.4135,-451.004,0,0
349724,71.9116,-446.66,0,0
351025,71.7099,-441.81,0,0
352327,72.1254,-436.345,0,0
353629,73.729,-431.316,0,0
354930,75.9832,-427.49,0,0
356232,77.6422,-424.994,0,0
357534,78.0043,-422.709,0,0
358835,77.3112,-419.585,0,0
360137,76.9074,-414.842,0,0
361438,78.0597,-409.69,0,0
362740.1,80.2417,-405.174,0,0
364041.725,82.8589,-401.444,0,0
365343.35,85.605,-398.434,0,0
366644.975,88.3239,-396.265,0,0
367946.6,90.3499,-394.512,0,0
369248.225,92.5259,-393.06,0,0
370549.85,93.8109,-392.791,0,0
371851.475,93.0124,-391.914,0,0
373153.1,92.0763,-388.774,0,0
374454.725,92.5443,-384.941,0,0
375756.35,93.7446,-381.454,0,0
377057.975,95.2829,-378.114,0,0
378359.6,96.8983,-374.83,0,0
379661,99.0615,-371.368,0,0
380963,101.876,-368.397,0,0
382264,104.785,-365.775,0,0
383566,107.995,-363.624,0,0
384868,110.962,-362.018,0,0
386169,113.695,-360.609,0,0
387471,116.157,-358.672,0,0
388773,119.318,-356.636,0,0
390074,123.192,-354.79,0,0
391376,127.424,-353.84,0,0
392677,131.414,-353.23,0,0
393979,135.869,-352.314,0,0
395280.7,141.457,-352.077,0,0
396582.325,147.935,-353.421,0,0
397883.95,154.977,-356.555,0,0
399185.575,161.503,-363.244,0,0
400006.6,164.009,-369.191,0,0