File: Accelerated corrosion test data/2025-10-01_12-27-23/sample_3.csv
Frequency (Hz),Impedance (ohms),Phase (Radians),Temperature (C),Humidity (%)
10000.0,254.186,-11752.2,0,0
11301.625,225.993,-10410.1,0,0
12603.25,204.886,-9343.08,0,0
13904.875,187.487,-8473.36,0,0
15206.5,174.771,-7746.55,0,0
16508.125,163.969,-7153.63,0,0
17809.75,158.481,-6624.91,0,0
19111.375,147.303,-6174.96,0,0
20413.0,157.472,-5774.57,0,0
21714.625,139.374,-5457.43,0,0
23016.25,129.255,-5152.19,0,0
24317.875,120.053,-4873.78,0,0
25619.5,114.685,-4627.37,0,0
26921.1,109.336,-4397.58,0,0
28222.7,104.41,-4192.52,0,0
29524.4,110.692,-4013.56,0,0
30826,101.946,-3843.05,0,0
32127.6,101.858,-3680.45,0,0
33429.2,100.274,-3554.19,0,0
34730.9,89.0028,-3418.01,0,0
36032.5,84.0194,-3290.64,0,0
37334.1,80.9726,-3173.23,0,0
38635.7,78.7666,-3063.88,0,0
39937.4,76.8259,-2961.61,0,0
41239,75.0692,-2864.89,0,0
42540.6,74.0115,-2775.6,0,0
43842.225,72.6273,-2690.12,0,0
45143.85,71.3253,-2610.84,0,0
46445.475,70.5797,-2535.08,0,0
47747.1,70.6877,-2462.91,0,0
49048.725,69.3515,-2397.83,0,0
50350.35,67.4477,-2332.66,0,0
51651.975,66.9342,-2270.24,0,0
52953.6,67.1426,-2210.65,0,0
54255.225,70.0276,-2156.08,0,0
55556.85,67.6188,-2108.94,0,0
56858.475,62.502,-2056.16,0,0
58160.1,61.7975,-2004.14,0,0
59461.7,62.4027,-1955.23,0,0
60763.3,63.7956,-1908.53,0,0
62065,65.9765,-1864.09,0,0
63366.6,69.5812,-1820.9,0,0
64668.2,77.9666,-1779.34,0,0
65969.8,92.3397,-1753.48,0,0
67271.5,77.2537,-1728.66,0,0
68573.1,76.9581,-1691.49,0,0
69874.7,76.233,-1662.19,0,0
71176.3,70.8643,-1631.8,0,0
72478,69.3744,-1599.16,0,0
73779.6,67.8466,-1570.72,0,0
75081.2,64.2951,-1542.41,0,0
76382.825,60.7637,-1513.18,0,0
77684.45,58.4866,-1484.26,0,0
78986.075,56.2834,-1455.9,0,0
80287.7,54.8339,-1427.96,0,0
81589.325,53.8532,-1400.76,0,0
82890.95,53.2481,-1374.4,0,0
84192.575,53.0246,-1348.77,0,0
85494.2,52.9304,-1323.83,0,0
86795.825,53.1363,-1299.5,0,0
88097.45,53.6036,-1275.55,0,0
89399.075,54.9873,-1251.85,0,0
90700.7,57.2485,-1229.89,0,0
92002.3,60.1251,-1208.9,0,0
93303.9,63.6832,-1190.29,0,0
94605.6,65.2971,-1175.78,0,0
95907.2,59.5839,-1158.84,0,0
97208.8,58.7219,-1137.91,0,0
98510.4,58.7917,-1119.04,0,0
99812.1,57.9411,-1100.8,0,0
101114,56.9794,-1081.37,0,0
102415,57.9879,-1060.81,0,0
103717,62.0678,-1043.05,0,0
105019,65.8681,-1029.33,0,0
106320.175,64.2661,-1016.85,0,0
107621.8,60.9004,-1000.88,0,0
108923.425,58.847,-982.825,0,0
110225.05,58.7769,-963.83,0,0
111526.675,61.3454,-945.584,0,0
112828.3,63.3861,-929.649,0,0
114129.925,65.0006,-913.396,0,0
115431.55,67.4913,-896.865,0,0
116733.175,71.1731,-880.384,0,0
118034.8,76.8711,-864.909,0,0
119336.425,83.8228,-853.527,0,0
120638.05,88.553,-847.224,0,0
121939.675,86.5489,-838.121,0,0
123241,86.8533,-825.218,0,0
124543,88.1529,-814.124,0,0
125845,89.0048,-803.924,0,0
127146,88.1315,-793.996,0,0
128448,86.2381,-782.868,0,0
129749,84.5536,-769.458,0,0
131051,85.4667,-755.996,0,0
132353,85.1916,-744.792,0,0
133654,84.504,-732.578,0,0
134956,83.3496,-719.881,0,0
136258,82.1689,-706.109,0,0
137559,82.3579,-691.092,0,0
138860.775,83.6545,-677.537,0,0
140162.4,82.9874,-664.338,0,0
141464.025,82.9404,-649.597,0,0
142765.65,82.6208,-633.925,0,0
144067.275,82.9674,-616.942,0,0
145368.9,84.7216,-599.134,0,0
146670.525,87.204,-580.328,0,0
147972.15,91.8006,-560.31,0,0
149273.775,98.3997,-540.181,0,0
150575.4,108.559,-519.648,0,0
151877.025,121.77,-502.552,0,0
153178.65,134.617,-488.578,0,0
154480,145.369,-476.268,0,0
155782,153.74,-460.74,0,0
157084,165.933,-444.304,0,0
158385,181,-430.899,0,0
159687,189.858,-416.184,0,0
160988,202.649,-389.132,0,0
162290,231.82,-362.852,0,0
163592,270.46,-346.315,0,0
164893,316.46,-338.402,0,0
166195,368.265,-352.204,0,0
167497,404.92,-384.844,0,0
168798,423.967,-422.957,0,0
170100,427.968,-459.151,0,0
171401.375,411.176,-479.418,0,0
172703.0,405.43,-482.887,0,0
174004.625,410.364,-487.718,0,0
175306.25,418.937,-507.248,0,0
176607.875,407.314,-530.118,0,0
177909.5,389.413,-542.373,0,0
179211.125,364.867,-537.898,0,0
180512.75,356.538,-523.799,0,0
181814.375,360.845,-518.471,0,0
183116.0,354.63,-525.287,0,0
184417.625,340.328,-520.411,0,0
185719.25,327.533,-506.35,0,0
187021,322.46,-485.34,0,0
188322,328.379,-466.241,0,0
189624,335.218,-452.756,0,0
190926,344.041,-437.131,0,0
192227,354.018,-423.997,0,0
193529,365.597,-407.874,0,0
194831,387.456,-389.129,0,0
196132,421.215,-386.879,0,0
197434,444.259,-398.543,0,0
198735,453.668,-407.735,0,0
200037,461.477,-406.934,0,0
201339,469.886,-406.387,0,0
202640.35,483.283,-397.988,0,0
203941.975,509.706,-391.356,0,0
205243.6,541.251,-398.003,0,0
206545.225,561.878,-417.227,0,0
207846.85,576.357,-423.467,0,0
209148.475,602.25,-428.629,0,0
210450.1,635.945,-445.015,0,0
211751.725,665.228,-473.923,0,0
213053.35,688.231,-507.696,0,0
214354.975,707.38,-548.799,0,0
215656.6,716.867,-595.488,0,0
216958.225,718.102,-643.682,0,0
218259.85,705.864,-692.513,0,0
219561,682.795,-733.641,0,0
220863,664.742,-767.228,0,0
222165,633.107,-808.449,0,0
223466,589.003,-833.731,0,0
224768,546.843,-839.89,0,0
226070,520.564,-837.448,0,0
227371,503.614,-845.088,0,0
228673,478.782,-856.487,0,0
229974,449.716,-865.114,0,0
231276,418.799,-866.655,0,0
232578,391.278,-863.015,0,0
233879,366.832,-858.053,0,0
235180.95,343.622,-853.133,0,0
236482.575,319.592,-847.067,0,0
237784.2,295.552,-836.993,0,0
239085.825,272.542,-822.931,0,0
240387.45,254.733,-804.57,0,0
241689.075,241.862,-785.949,0,0
242990.7,233.295,-767.876,0,0
244292.325,228.575,-751.996,0,0
245593.95,224.549,-740.043,0,0
246895.575,219.923,-728.373,0,0
248197.2,216.081,-716.641,0,0
249498.825,214.884,-705.491,0,0
250800,214.152,-698.086,0,0
252102,209.743,-692.498,0,0
253404,202.096,-683.231,0,0
254705,197.164,-668.236,0,0
256007,197.411,-651.932,0,0
257309,205.085,-636.855,0,0
258610,215.781,-628.917,0,0
259912,225.79,-622.814,0,0
261213,240.115,-623.025,0,0
262515,251.047,-633.12,0,0
263817,251.633,-647.631,0,0
265118,243.335,-659.69,0,0
266420,228.544,-665.133,0,0
267721.55,213.933,-661.745,0,0
269023.175,203.661,-653.187,0,0
270324.8,198.052,-643.417,0,0
271626.425,196.046,-634.123,0,0
272928.05,196.17,-626.686,0,0
274229.675,196.419,-620.605,0,0
275531.3,198.595,-613.378,0,0
276832.925,204.829,-608.095,0,0
278134.55,213.135,-609.58,0,0
279436.175,217.024,-616.969,0,0
280737.8,213.281,-625.562,0,0
282039.425,205.989,-629.057,0,0
283341,197.939,-630.739,0,0
284643,189.41,-628.773,0,0
285944,181.977,-624.955,0,0
287246,175.747,-618.469,0,0
288548,174.002,-610.622,0,0
289849,175.546,-606.527,0,0
291151,174.93,-605.208,0,0
292452,172.822,-603.453,0,0
293754,170.941,-599.948,0,0
295056,171.999,-596.812,0,0
296357,174.103,-597.243,0,0
297659,173.544,-600.46,0,0
298960.525,169.515,-604.1,0,0
300262.15,163.298,-605.529,0,0
301563.775,156.506,-605.283,0,0
302865.4,149.357,-603.296,0,0
304167.025,142.944,-599.675,0,0
305468.65,137.491,-594.957,0,0
306770.275,133.298,-589.819,0,0
308071.9,130.631,-584.637,0,0
309373.525,128.905,-581.015,0,0
310675.15,126.037,-578.426,0,0
311976.775,122.195,-575.074,0,0
313278.4,118.013,-570.847,0,0
314580,114.533,-564.715,0,0
315882,113.384,-557.988,0,0
317183,114.398,-552.732,0,0
318485,115.503,-549.709,0,0
319787,115.453,-547.437,0,0
321088,115.17,-544.984,0,0
322390,115.511,-543.046,0,0
323691,115.694,-542.644,0,0
324993,114.191,-543.2,0,0
326295,111.045,-543.491,0,0
327596,106.841,-542.608,0,0
328898,102.642,-540.389,0,0
330200,98.8908,-537.951,0,0
331501.125,94.6584,-535.3,0,0
332802.75,90.0786,-531.735,0,0
334104.375,85.7423,-527.214,0,0
335406.0,81.9314,-521.765,0,0
336707.625,79.2184,-515.469,0,0
338009.25,77.5868,-509.348,0,0
339310.875,76.4675,-503.012,0,0
340612.5,76.6991,-496.425,0,0
341914.125,78.6426,-490.959,0,0
343215.75,81.1417,-487.355,0,0
344517.375,82.6585,-485.406,0,0
345819.0,82.7627,-483.756,0,0
347121,82.1112,-481.5,0,0
348422,81.3866,-478.638,0,0
349724,81.2802,-475.208,0,0
351025,82.0387,-472.131,0,0
352327,83.2216,-470.39,0,0
353629,83.2587,-469.845,0,0
354930,81.5051,-468.9,0,0
356232,79.4129,-466.491,0,0
357534,77.9692,-463.38,0,0
358835,76.9037,-460.125,0,0
360137,76.1778,-456.511,0,0
361438,76.0842,-453.121,0,0
362740.1,76.4581,-449.782,0,0
364041.725,77.1718,-446.846,0,0
365343.35,78.5417,-444.803,0,0
366644.975,79.2025,-444.532,0,0
367946.6,77.3018,-444.165,0,0
369248.225,74.4567,-441.35,0,0
370549.85,73.8791,-436.418,0,0
371851.475,75.8408,-433.421,0,0
373153.1,76.3296,-432.833,0,0
374454.725,74.9462,-431.543,0,0
375756.35,73.4194,-429.012,0,0
377057.975,72.502,-425.464,0,0
378359.6,72.9193,-421.858,0,0
379661,73.9084,-419.228,0,0
380963,74.6049,-417.262,0,0
382264,75.3503,-415.622,0,0
383566,75.4763,-414.797,0,0
384868,74.4839,-413.686,0,0
386169,73.0749,-411.702,0,0
387471,71.8197,-408.88,0,0
388773,71.08,-405.599,0,0
390074,70.8651,-401.963,0,0
391376,71.6093,-398.152,0,0
392677,73.1406,-394.805,0,0
393979,75.4334,-392.285,0,0
395280.7,77.8313,-390.834,0,0
396582.325,79.8903,-390.566,0,0
397883.95,80.9995,-391.04,0,0
399185.575,80.8883,-391.81,0,0
400006.6,80.1496,-392.016,0,0