File: Accelerated corrosion test data/2025-10-01_12-27-23/sample_1.csv
Frequency (Hz),Impedance (ohms),Phase (Radians),Temperature (C),Humidity (%)
10000.0,238.964,-12227.3,0,0
11301.625,213.367,-10830.2,0,0
12603.25,194.824,-9729.01,0,0
13904.875,180.868,-8803.11,0,0
15206.5,179.023,-8071.34,0,0
16508.125,154.907,-7442.21,0,0
17809.75,148.494,-6906.08,0,0
19111.375,135.486,-6436.26,0,0
20413.0,153.113,-5994.38,0,0
21714.625,138.093,-5679.86,0,0
23016.25,122.694,-5371.46,0,0
24317.875,112.885,-5078.93,0,0
25619.5,104.837,-4814.07,0,0
26921.1,113.18,-4565.47,0,0
28222.7,109.833,-4360.93,0,0
29524.4,107.48,-4193.85,0,0
30826,100.223,-4007.23,0,0
32127.6,98.048,-3847.4,0,0
33429.2,89.163,-3704.16,0,0
34730.9,82.0273,-3562.1,0,0
36032.5,77.7152,-3430.8,0,0
37334.1,74.9824,-3308.06,0,0
38635.7,72.785,-3194.26,0,0
39937.4,71.1697,-3087.57,0,0
41239,71.9968,-2988.35,0,0
42540.6,70.5247,-2896.04,0,0
43842.225,67.7522,-2808.66,0,0
45143.85,68.7891,-2727.02,0,0
46445.475,65.6113,-2651.21,0,0
47747.1,63.9212,-2577.15,0,0
49048.725,61.4885,-2506.66,0,0
50350.35,59.8892,-2439.91,0,0
51651.975,58.7817,-2376.3,0,0
52953.6,57.6654,-2315.21,0,0
54255.225,56.91,-2258.03,0,0
55556.85,56.0776,-2202.41,0,0
56858.475,55.0122,-2149.52,0,0
58160.1,54.6536,-2098.7,0,0
59461.7,54.5463,-2050.59,0,0
60763.3,54.5842,-2004.47,0,0
62065,53.2446,-1960.7,0,0
63366.6,52.5891,-1916.92,0,0
64668.2,53.1132,-1874.97,0,0
65969.8,55.2984,-1837.06,0,0
67271.5,53.7513,-1800.43,0,0
68573.1,53.474,-1764.58,0,0
69874.7,52.2948,-1730.68,0,0
71176.3,50.6669,-1695.98,0,0
72478,48.8669,-1662.24,0,0
73779.6,48.3255,-1628.75,0,0
75081.2,48.7265,-1596.48,0,0
76382.825,49.5267,-1565.27,0,0
77684.45,50.2255,-1535.88,0,0
78986.075,52.0464,-1508.07,0,0
80287.7,51.3011,-1481.72,0,0
81589.325,51.0888,-1453.78,0,0
82890.95,51.3256,-1426.87,0,0
84192.575,53.1084,-1400.55,0,0
85494.2,55.1675,-1376.1,0,0
86795.825,56.2336,-1352.66,0,0
88097.45,56.7087,-1329.63,0,0
89399.075,57.6763,-1304.94,0,0
90700.7,61.7703,-1281.54,0,0
92002.3,68.2641,-1260.05,0,0
93303.9,75.399,-1243.24,0,0
94605.6,74.1995,-1235.9,0,0
95907.2,67.649,-1217.53,0,0
97208.8,64.8644,-1197.07,0,0
98510.4,64.4772,-1176.71,0,0
99812.1,63.4969,-1156.19,0,0
101114,63.9929,-1136.64,0,0
102415,63.436,-1114.97,0,0
103717,68.1733,-1093.72,0,0
105019,74.9682,-1075.66,0,0
106320.175,81.5247,-1059.65,0,0
107621.8,88.2925,-1047.29,0,0
108923.425,92.9643,-1036.42,0,0
110225.05,94.3185,-1027.62,0,0
111526.675,95.0442,-1015.54,0,0
112828.3,97.1558,-1006.21,0,0
114129.925,96.131,-998.514,0,0
115431.55,92.1856,-988.965,0,0
116733.175,86.903,-976.539,0,0
118034.8,82.9603,-961.68,0,0
119336.425,81.6921,-945.898,0,0
120638.05,82.2861,-931.877,0,0
121939.675,81.2038,-919.321,0,0
123241,79.535,-904.998,0,0
124543,79.2671,-889.85,0,0
125845,79.914,-875.09,0,0
127146,81.0716,-860.717,0,0
128448,83.114,-845.635,0,0
129749,86.2061,-831.392,0,0
131051,91.3929,-818.316,0,0
132353,95.5812,-807.75,0,0
133654,98.8112,-797.64,0,0
134956,101.017,-787.409,0,0
136258,104.208,-776.362,0,0
137559,108.838,-766.583,0,0
138860.775,111.114,-760.95,0,0
140162.4,110.631,-752.49,0,0
141464.025,110.156,-741.94,0,0
142765.65,111.339,-731.096,0,0
144067.275,112.122,-720.256,0,0
145368.9,114.23,-708.8,0,0
146670.525,117.281,-697.878,0,0
147972.15,120.276,-688.45,0,0
149273.775,122.014,-679.343,0,0
150575.4,123.361,-670.075,0,0
151877.025,122.481,-658.59,0,0
153178.65,123.1,-644.089,0,0
154480,126.011,-628.04,0,0
155782,133.83,-610.624,0,0
157084,145.791,-596.034,0,0
158385,158.018,-586.456,0,0
159687,169.27,-575.299,0,0
160988,186.311,-565.833,0,0
162290,203.043,-564.374,0,0
163592,217.431,-564.64,0,0
164893,229.688,-567.879,0,0
166195,243.082,-575.512,0,0
167497,247.529,-588.48,0,0
168798,244.706,-597.914,0,0
170100,237.275,-603.236,0,0
171401.375,230.94,-601.307,0,0
172703.0,224.692,-599.377,0,0
174004.625,220.645,-592.663,0,0
175306.25,221.03,-586.382,0,0
176607.875,220.359,-584.535,0,0
177909.5,217.657,-581.413,0,0
179211.125,214.938,-578.087,0,0
180512.75,209.377,-575.177,0,0
181814.375,201.84,-567.695,0,0
183116.0,193.824,-557.799,0,0
184417.625,189.318,-542.543,0,0
185719.25,188.247,-527.169,0,0
187021,189.432,-512.236,0,0
188322,191.556,-497.383,0,0
189624,194.752,-481.046,0,0
190926,200.958,-465.139,0,0
192227,208.114,-449.415,0,0
193529,215.851,-433.825,0,0
194831,225.546,-416.746,0,0
196132,238.433,-398.376,0,0
197434,255.382,-379.976,0,0
198735,275.898,-364.943,0,0
200037,296.572,-349.832,0,0
201339,323.079,-332.032,0,0
202640.35,359.303,-318.785,0,0
203941.975,402.089,-312.69,0,0
205243.6,453.521,-320.003,0,0
206545.225,498.552,-348.824,0,0
207846.85,528.103,-387.774,0,0
209148.475,541.338,-428.769,0,0
210450.1,538.386,-461.834,0,0
211751.725,529.995,-480.559,0,0
213053.35,531.505,-485.526,0,0
214354.975,541.515,-496.161,0,0
215656.6,552.741,-511.198,0,0
216958.225,559,-525.463,0,0
218259.85,573.558,-539.204,0,0
219561,589.053,-556.863,0,0
220863,608.421,-582.607,0,0
222165,625.415,-620.853,0,0
223466,632.097,-667.915,0,0
224768,624.543,-718.901,0,0
226070,604.39,-768.913,0,0
227371,570.052,-812.309,0,0
228673,525.678,-842.931,0,0
229974,480.122,-860.193,0,0
231276,435.53,-865.078,0,0
232578,399.71,-860.338,0,0
233879,370.543,-855.197,0,0
235180.95,344.964,-849.938,0,0
236482.575,320.637,-843.564,0,0
237784.2,299.197,-836.153,0,0
239085.825,278.317,-829.17,0,0
240387.45,256.819,-819.004,0,0
241689.075,238.885,-806.424,0,0
242990.7,224.305,-793.391,0,0
244292.325,212.262,-781.511,0,0
245593.95,200.526,-770.651,0,0
246895.575,188.927,-759.04,0,0
248197.2,178.997,-746.353,0,0
249498.825,170.819,-733.965,0,0
250800,163.557,-721.91,0,0
252102,157.055,-709.934,0,0
253404,151.247,-697.4,0,0
254705,146.9,-684.222,0,0
256007,144.841,-671.672,0,0
257309,143.566,-659.657,0,0
258610,143.931,-647.848,0,0
259912,145.774,-636.85,0,0
261213,149.621,-627.221,0,0
262515,154.344,-620.115,0,0
263817,159.559,-614.213,0,0
265118,166.043,-610.97,0,0
266420,172.229,-612.251,0,0
267721.55,174.7,-617.989,0,0
269023.175,169.499,-624.694,0,0
270324.8,159.075,-625.146,0,0
271626.425,149.985,-619.719,0,0
272928.05,144.247,-611.332,0,0
274229.675,141.753,-602.909,0,0
275531.3,141.26,-595.214,0,0
276832.925,141.852,-588.712,0,0
278134.55,143.885,-583.345,0,0
279436.175,146.493,-580.132,0,0
280737.8,147.547,-579.529,0,0
282039.425,146.336,-578.782,0,0
283341,143.867,-577.559,0,0
284643,140.746,-575.034,0,0
285944,136.703,-571.701,0,0
287246,132.446,-566.327,0,0
288548,130.001,-558.079,0,0
289849,132.214,-549.926,0,0
291151,135.176,-546.449,0,0
292452,135.294,-543.482,0,0
293754,134.822,-539.131,0,0
295056,134.999,-533.116,0,0
296357,137.68,-526.118,0,0
297659,142.709,-521.25,0,0
298960.525,148.153,-517.913,0,0
300262.15,153.791,-516.25,0,0
301563.775,159.395,-515.631,0,0
302865.4,165.423,-516.721,0,0
304167.025,170.718,-519.65,0,0
305468.65,174.312,-524.375,0,0
306770.275,176.894,-529.277,0,0
308071.9,178.308,-535.476,0,0
309373.525,177.355,-542.347,0,0
310675.15,174.642,-548.664,0,0
311976.775,170.569,-554.557,0,0
313278.4,164.439,-559.91,0,0
314580,157.12,-563.367,0,0
315882,149.387,-565.454,0,0
317183,141.006,-566.153,0,0
318485,132.721,-564.763,0,0
319787,125.466,-562.463,0,0
321088,118.23,-559.145,0,0
322390,111.799,-554.588,0,0
323691,106.684,-548.857,0,0
324993,103.587,-542.912,0,0
326295,101.847,-538.169,0,0
327596,100.546,-534.205,0,0
328898,99.4776,-531.283,0,0
330200,98.1209,-529.231,0,0
331501.125,96.1167,-527.707,0,0
332802.75,93.1709,-526.204,0,0
334104.375,89.6866,-524.237,0,0
335406.0,85.9739,-521.703,0,0
336707.625,82.2166,-518.504,0,0
338009.25,78.7697,-514.988,0,0
339310.875,75.4887,-510.971,0,0
340612.5,72.6817,-506.644,0,0
341914.125,70.45,-502.352,0,0
343215.75,68.3384,-498.285,0,0
344517.375,66.2546,-494.187,0,0
345819.0,64.2418,-489.884,0,0
347121,62.3793,-485.407,0,0
348422,60.9042,-480.873,0,0
349724,59.761,-476.17,0,0
351025,59.1232,-471.477,0,0
352327,58.6311,-467.346,0,0
353629,58.1175,-463.294,0,0
354930,57.692,-459.052,0,0
356232,57.6691,-454.829,0,0
357534,57.9509,-450.916,0,0
358835,58.0897,-447.355,0,0
360137,58.1837,-443.738,0,0
361438,58.5656,-440.09,0,0
362740.1,58.8374,-436.782,0,0
364041.725,59.0428,-433.452,0,0
365343.35,59.2954,-429.935,0,0
366644.975,59.646,-426.312,0,0
367946.6,60.0676,-422.547,0,0
369248.225,60.9276,-418.148,0,0
370549.85,63.0703,-413.667,0,0
371851.475,66.0737,-410.239,0,0
373153.1,69.3655,-407.878,0,0
374454.725,72.5434,-406.495,0,0
375756.35,75.0866,-405.98,0,0
377057.975,77.0745,-405.544,0,0
378359.6,78.9716,-405.334,0,0
379661,80.481,-405.504,0,0
380963,81.8854,-405.782,0,0
382264,83.2833,-406.993,0,0
383566,83.3998,-409.117,0,0
384868,81.804,-411.118,0,0
386169,79.1395,-411.853,0,0
387471,76.2124,-411.582,0,0
388773,73.3962,-410.071,0,0
390074,71.4149,-407.949,0,0
391376,70.2363,-406.152,0,0
392677,68.7073,-404.963,0,0
393979,66.39,-403.51,0,0
395280.7,63.8718,-401.17,0,0
396582.325,61.7457,-398.147,0,0
397883.95,60.1248,-394.742,0,0
399185.575,58.9382,-391.173,0,0
400006.6,58.3662,-388.868,0,0