File: Accelerated corrosion test data/2025-10-01_12-27-23/sample_8.csv
Frequency (Hz),Impedance (ohms),Phase (Radians),Temperature (C),Humidity (%)
10000.0,316.684,-10927.2,0,0
11301.625,280.215,-9684.33,0,0
12603.25,257.398,-8696.87,0,0
13904.875,229.074,-7898.9,0,0
15206.5,208.437,-7228.38,0,0
16508.125,192.338,-6663.71,0,0
17809.75,178.645,-6179.34,0,0
19111.375,169.474,-5759.35,0,0
20413.0,161.599,-5398.25,0,0
21714.625,152.521,-5078.77,0,0
23016.25,146.046,-4797.09,0,0
24317.875,135.664,-4541.31,0,0
25619.5,128.958,-4309.75,0,0
26921.1,123.286,-4099.72,0,0
28222.7,119.756,-3909.76,0,0
29524.4,117.155,-3737.46,0,0
30826,114.84,-3580.68,0,0
32127.6,112.197,-3435.54,0,0
33429.2,112.744,-3300.38,0,0
34730.9,111.234,-3181.27,0,0
36032.5,107.505,-3071.39,0,0
37334.1,100.855,-2966.7,0,0
38635.7,93.9743,-2866.62,0,0
39937.4,88.1908,-2770.7,0,0
41239,85.7473,-2680.39,0,0
42540.6,83.1304,-2595.87,0,0
43842.225,82.6426,-2517.46,0,0
45143.85,79.2282,-2443.84,0,0
46445.475,76.4478,-2372.9,0,0
47747.1,75.1106,-2306.11,0,0
49048.725,73.3372,-2243.44,0,0
50350.35,71.4659,-2182.77,0,0
51651.975,70.299,-2124.81,0,0
52953.6,69.8707,-2070.59,0,0
54255.225,68.9267,-2020.7,0,0
55556.85,65.6953,-1971.27,0,0
56858.475,63.5369,-1922.55,0,0
58160.1,62.6753,-1875.94,0,0
59461.7,62.6314,-1832.06,0,0
60763.3,60.9391,-1789.75,0,0
62065,60.8996,-1748.8,0,0
63366.6,60.9962,-1709.16,0,0
64668.2,62.5602,-1672.46,0,0
65969.8,61.884,-1638.82,0,0
67271.5,59.5404,-1604.67,0,0
68573.1,58.6066,-1570.51,0,0
69874.7,58.1435,-1537.31,0,0
71176.3,58.6387,-1505.76,0,0
72478,59.1693,-1476.06,0,0
73779.6,58.1889,-1447.37,0,0
75081.2,57.7352,-1419.03,0,0
76382.825,57.7113,-1390.99,0,0
77684.45,57.7009,-1364.35,0,0
78986.075,57.238,-1338.26,0,0
80287.7,57.2549,-1312.24,0,0
81589.325,57.591,-1286.99,0,0
82890.95,58.5032,-1261.87,0,0
84192.575,60.4193,-1238.1,0,0
85494.2,62.3091,-1216.4,0,0
86795.825,62.1209,-1194.79,0,0
88097.45,63.2617,-1172.14,0,0
89399.075,65.6036,-1150.82,0,0
90700.7,68.0626,-1129.93,0,0
92002.3,72.6123,-1110.53,0,0
93303.9,76.1002,-1095.41,0,0
94605.6,74.6912,-1079.71,0,0
95907.2,76.2139,-1061.37,0,0
97208.8,77.4067,-1044.16,0,0
98510.4,79.6717,-1028.64,0,0
99812.1,80.3295,-1014.68,0,0
101114,80.9639,-999.594,0,0
102415,80.3459,-985.28,0,0
103717,79.8861,-970.221,0,0
105019,79.2015,-955.309,0,0
106320.175,79.2734,-939.453,0,0
107621.8,80.4586,-924.953,0,0
108923.425,80.7419,-910.703,0,0
110225.05,81.8316,-897.039,0,0
111526.675,81.9539,-884.219,0,0
112828.3,82.0308,-870.976,0,0
114129.925,81.8181,-858.099,0,0
115431.55,81.2741,-844.919,0,0
116733.175,80.8089,-831.961,0,0
118034.8,79.8609,-818.409,0,0
119336.425,80.0829,-804.441,0,0
120638.05,79.7657,-791.383,0,0
121939.675,79.6883,-777.492,0,0
123241,80.2599,-763.93,0,0
124543,80.2941,-750.166,0,0
125845,81.6288,-736.454,0,0
127146,82.8903,-723.197,0,0
128448,84.1986,-710.521,0,0
129749,84.7662,-698.29,0,0
131051,84.2281,-684.361,0,0
132353,87.0833,-669.775,0,0
133654,88.8019,-656.137,0,0
134956,91.1966,-643.29,0,0
136258,94.0986,-630.15,0,0
137559,96.8087,-618.85,0,0
138860.775,95.7359,-607.005,0,0
140162.4,96.4948,-591.46,0,0
141464.025,97.9787,-576.165,0,0
142765.65,100.399,-559.463,0,0
144067.275,103.829,-542.201,0,0
145368.9,109.531,-522.728,0,0
146670.525,120.002,-504.681,0,0
147972.15,131.212,-490.653,0,0
149273.775,137.182,-475.635,0,0
150575.4,151.465,-455.3,0,0
151877.025,173.802,-440.547,0,0
153178.65,194.117,-442.008,0,0
154480,201.469,-442.385,0,0
155782,208.468,-432.737,0,0
157084,223.132,-434.086,0,0
158385,218.064,-427.162,0,0
159687,232.183,-408.596,0,0
160988,245.915,-412.664,0,0
162290,250.194,-401.191,0,0
163592,267.748,-394.653,0,0
164893,279.728,-400.606,0,0
166195,284.665,-404.653,0,0
167497,277.174,-408.819,0,0
168798,266.882,-397.169,0,0
170100,264.28,-375.669,0,0
171401.375,268.907,-353.545,0,0
172703.0,279.609,-328.148,0,0
174004.625,299.84,-306.247,0,0
175306.25,323.28,-291.317,0,0
176607.875,341.602,-278.026,0,0
177909.5,367.564,-260.918,0,0
179211.125,397.377,-247.991,0,0
180512.75,431.522,-241.261,0,0
181814.375,465.739,-239.364,0,0
183116.0,497.573,-242.34,0,0
184417.625,525.286,-247.053,0,0
185719.25,553.607,-248.392,0,0
187021,593.568,-244.642,0,0
188322,638.032,-253.921,0,0
189624,689.024,-275.798,0,0
190926,726.462,-304.922,0,0
192227,772.771,-329.912,0,0
193529,817.459,-376.138,0,0
194831,872.282,-430.023,0,0
196132,904.717,-524.3,0,0
197434,907.281,-628.893,0,0
198735,861.925,-723.185,0,0
200037,803.443,-788.546,0,0
201339,730.874,-829.339,0,0
202640.35,668.619,-848.236,0,0
203941.975,605.815,-852.73,0,0
205243.6,553.217,-837.779,0,0
206545.225,518.044,-817.266,0,0
207846.85,496.477,-791.783,0,0
209148.475,488.765,-774.959,0,0
210450.1,484.583,-760.904,0,0
211751.725,487.655,-756.761,0,0
213053.35,489.399,-759.113,0,0
214354.975,487.424,-771.124,0,0
215656.6,472.734,-782.389,0,0
216958.225,455.19,-782.025,0,0
218259.85,448.068,-774.533,0,0
219561,450.551,-775.588,0,0
220863,450.219,-785.309,0,0
222165,446.301,-800.312,0,0
223466,433.603,-818.963,0,0
224768,413.452,-830.814,0,0
226070,393.56,-840.221,0,0
227371,368.771,-847.743,0,0
228673,343.637,-847.562,0,0
229974,321.877,-843.558,0,0
231276,300.846,-840.011,0,0
232578,279.448,-833.442,0,0
233879,258.397,-823.781,0,0
235180.95,239.887,-810.289,0,0
236482.575,225.763,-794.439,0,0
237784.2,216.475,-778.698,0,0
239085.825,210.416,-765.617,0,0
240387.45,205.942,-755.639,0,0
241689.075,199.153,-748.754,0,0
242990.7,189.324,-739.836,0,0
244292.325,180.835,-727.83,0,0
245593.95,174.374,-715.9,0,0
246895.575,168.878,-701.883,0,0
248197.2,166.858,-688.424,0,0
249498.825,165.417,-676.178,0,0
250800,165.821,-663.327,0,0
252102,168.929,-651.247,0,0
253404,174.843,-642.955,0,0
254705,177.434,-637.978,0,0
256007,179.302,-630.325,0,0
257309,184.18,-623.288,0,0
258610,189.556,-617.886,0,0
259912,196.226,-614.721,0,0
261213,201.572,-613.893,0,0
262515,206.307,-614.467,0,0
263817,208.253,-615.227,0,0
265118,210.375,-614.362,0,0
266420,214.94,-611.385,0,0
267721.55,224.926,-611.525,0,0
269023.175,236.611,-619.258,0,0
270324.8,244.309,-635.464,0,0
271626.425,243.586,-656.114,0,0
272928.05,232.554,-677.023,0,0
274229.675,210.906,-691.524,0,0
275531.3,186.519,-694.591,0,0
276832.925,165.715,-688.38,0,0
278134.55,151.65,-679.427,0,0
279436.175,140.15,-670.195,0,0
280737.8,131.787,-659.387,0,0
282039.425,127.51,-649.89,0,0
283341,124.012,-641.578,0,0
284643,122.317,-634.023,0,0
285944,122.401,-628.042,0,0
287246,124.353,-625.339,0,0
288548,123.244,-627.976,0,0
289849,116.472,-629.514,0,0
291151,108.347,-627.575,0,0
292452,100.982,-624.285,0,0
293754,92.6534,-619.684,0,0
295056,85.2669,-612.464,0,0
296357,79.9991,-604.644,0,0
297659,75.7231,-596.753,0,0
298960.525,72.6545,-588.636,0,0
300262.15,70.7149,-580.769,0,0
301563.775,69.6618,-573.298,0,0
302865.4,69.7311,-566.129,0,0
304167.025,70.8278,-560.414,0,0
305468.65,71.6606,-556.041,0,0
306770.275,72.2233,-552.041,0,0
308071.9,72.8063,-549.049,0,0
309373.525,72.7344,-546.851,0,0
310675.15,71.3651,-544.839,0,0
311976.775,69.6261,-542.144,0,0
313278.4,67.8139,-539.295,0,0
314580,65.5582,-536.335,0,0
315882,63.1097,-532.417,0,0
317183,61.4046,-527.966,0,0
318485,60.6996,-523.65,0,0
319787,60.3818,-520.058,0,0
321088,60.0336,-517.168,0,0
322390,58.9525,-514.872,0,0
323691,57.3372,-512.384,0,0
324993,55.4075,-509.741,0,0
326295,53.012,-506.575,0,0
327596,50.9437,-502.76,0,0
328898,49.104,-498.891,0,0
330200,47.4563,-494.675,0,0
331501.125,46.2074,-490.459,0,0
332802.75,45.049,-486.226,0,0
334104.375,44.3,-481.813,0,0
335406.0,44.0707,-477.627,0,0
336707.625,44.1329,-473.834,0,0
338009.25,44.0266,-470.511,0,0
339310.875,43.7585,-467.364,0,0
340612.5,43.3017,-464.315,0,0
341914.125,42.6631,-461.208,0,0
343215.75,41.8933,-457.871,0,0
344517.375,41.2163,-454.265,0,0
345819.0,40.7722,-450.552,0,0
347121,40.5592,-446.852,0,0
348422,40.6491,-443.146,0,0
349724,40.9171,-439.64,0,0
351025,41.3415,-436.327,0,0
352327,41.8649,-433.333,0,0
353629,42.2365,-430.52,0,0
354930,42.647,-427.696,0,0
356232,43.0386,-425.166,0,0
357534,43.2084,-422.793,0,0
358835,43.1074,-420.454,0,0
360137,42.8735,-417.762,0,0
361438,42.7247,-414.875,0,0
362740.1,42.7659,-411.906,0,0
364041.725,42.9968,-408.81,0,0
365343.35,43.5117,-405.807,0,0
366644.975,44.3368,-403.007,0,0
367946.6,45.1818,-400.548,0,0
369248.225,45.8633,-398.146,0,0
370549.85,46.9064,-395.705,0,0
371851.475,48.1531,-393.893,0,0
373153.1,48.9942,-392.593,0,0
374454.725,49.2706,-391.365,0,0
375756.35,49.32,-389.758,0,0
377057.975,49.5773,-388.177,0,0
378359.6,49.6221,-386.818,0,0
379661,49.172,-385.124,0,0
380963,49.5849,-382.876,0,0
382264,50.3917,-382.378,0,0
383566,49.041,-382.072,0,0
384868,47.2985,-380.212,0,0
386169,45.9832,-377.719,0,0
387471,45.0891,-374.848,0,0
388773,44.5953,-371.856,0,0
390074,44.6504,-368.946,0,0
391376,44.7772,-366.477,0,0
392677,44.7027,-364.028,0,0
393979,44.6139,-361.397,0,0
395280.7,44.6808,-358.713,0,0
396582.325,45.0168,-356.039,0,0
397883.95,45.4882,-353.561,0,0
399185.575,45.8245,-351.309,0,0
400006.6,45.9253,-349.914,0,0