File: Accelerated corrosion test data/2025-10-01_12-27-23/sample_6.csv
Frequency (Hz),Impedance (ohms),Phase (Radians),Temperature (C),Humidity (%)
10000.0,4289.14,-6436.1,0,0
11301.625,3662.12,-6082.65,0,0
12603.25,3159.15,-5736.78,0,0
13904.875,2751.63,-5420.68,0,0
15206.5,2415.63,-5121.35,0,0
16508.125,2138.3,-4845.79,0,0
17809.75,1905.77,-4593.91,0,0
19111.375,1712.3,-4359.99,0,0
20413.0,1544.86,-4148.7,0,0
21714.625,1400.77,-3952.39,0,0
23016.25,1281.2,-3766.04,0,0
24317.875,1173.31,-3608.88,0,0
25619.5,1078.46,-3455.03,0,0
26921.1,995.24,-3311.75,0,0
28222.7,923.824,-3181.35,0,0
29524.4,857.987,-3055.85,0,0
30826,803.181,-2941.57,0,0
32127.6,753.663,-2831.29,0,0
33429.2,716.373,-2735.05,0,0
34730.9,673.951,-2649.47,0,0
36032.5,634.137,-2566.79,0,0
37334.1,594.542,-2484.93,0,0
38635.7,560.228,-2404.59,0,0
39937.4,531.723,-2329.18,0,0
41239,505.945,-2258.74,0,0
42540.6,483.018,-2192.75,0,0
43842.225,461.349,-2126.79,0,0
45143.85,444.034,-2063.49,0,0
46445.475,433.352,-2007.54,0,0
47747.1,423.165,-1956.48,0,0
49048.725,416.125,-1914.1,0,0
50350.35,397.263,-1883.12,0,0
51651.975,373.406,-1839.14,0,0
52953.6,356.114,-1794.59,0,0
54255.225,338.401,-1753.16,0,0
55556.85,321.987,-1712.67,0,0
56858.475,308.038,-1665.49,0,0
58160.1,304.44,-1626.86,0,0
59461.7,295.543,-1595.46,0,0
60763.3,282.359,-1563.51,0,0
62065,267.806,-1527.55,0,0
63366.6,264.103,-1488.66,0,0
64668.2,257.308,-1464.32,0,0
65969.8,248.051,-1434.39,0,0
67271.5,236.567,-1405.42,0,0
68573.1,226.507,-1372.97,0,0
69874.7,219.176,-1340.36,0,0
71176.3,215.026,-1308.32,0,0
72478,213.523,-1278.52,0,0
73779.6,213.767,-1251.89,0,0
75081.2,212.75,-1228.03,0,0
76382.825,211.214,-1205.51,0,0
77684.45,209.523,-1182.08,0,0
78986.075,209.887,-1160.35,0,0
80287.7,210.352,-1141.58,0,0
81589.325,208.935,-1124.63,0,0
82890.95,206.005,-1108.08,0,0
84192.575,201.59,-1090.68,0,0
85494.2,197.728,-1071.61,0,0
86795.825,195.751,-1052.93,0,0
88097.45,193.666,-1035.68,0,0
89399.075,191.893,-1018.16,0,0
90700.7,191.069,-1001.71,0,0
92002.3,188.366,-986.384,0,0
93303.9,187.835,-969.735,0,0
94605.6,187.275,-951.838,0,0
95907.2,189.046,-938.958,0,0
97208.8,187.481,-927.46,0,0
98510.4,184.974,-910.645,0,0
99812.1,192.294,-897.032,0,0
101114,191.451,-893.426,0,0
102415,187.27,-882.137,0,0
103717,185.203,-876.293,0,0
105019,173.145,-869.559,0,0
106320.175,159.667,-850.018,0,0
107621.8,156.321,-826.014,0,0
108923.425,159.667,-806.945,0,0
110225.05,162.355,-791.711,0,0
111526.675,165.264,-776.29,0,0
112828.3,170.235,-763.451,0,0
114129.925,175.334,-752.58,0,0
115431.55,179.3,-743.123,0,0
116733.175,183.435,-736.562,0,0
118034.8,181.854,-730.844,0,0
119336.425,181.436,-718.807,0,0
120638.05,189.427,-707.551,0,0
121939.675,193.743,-711.112,0,0
123241,187.553,-707.382,0,0
124543,183.223,-701.256,0,0
125845,178.127,-693.204,0,0
127146,173.067,-683.34,0,0
128448,170.966,-670.59,0,0
129749,173.403,-661.305,0,0
131051,173.325,-655.185,0,0
132353,171.431,-649.491,0,0
133654,167.237,-643.827,0,0
134956,161.223,-635.693,0,0
136258,155.314,-625.321,0,0
137559,150.629,-612.991,0,0
138860.775,147.44,-599.667,0,0
140162.4,145.768,-586.117,0,0
141464.025,145.582,-572.612,0,0
142765.65,145.997,-559.86,0,0
144067.275,147.817,-546.668,0,0
145368.9,151.335,-535.875,0,0
146670.525,151.958,-527.348,0,0
147972.15,151.027,-516.7,0,0
149273.775,150.451,-503.941,0,0
150575.4,150.934,-489.356,0,0
151877.025,154.396,-472.479,0,0
153178.65,164.902,-459.122,0,0
154480,171.303,-451.71,0,0
155782,176.394,-440.591,0,0
157084,186.278,-432.353,0,0
158385,191.694,-429.105,0,0
159687,193.887,-423.518,0,0
160988,195.762,-416.388,0,0
162290,197.631,-409.089,0,0
163592,199.039,-400.675,0,0
164893,198.856,-390.906,0,0
166195,200.92,-378.171,0,0
167497,204.705,-366.356,0,0
168798,209.128,-354.176,0,0
170100,214.195,-342.689,0,0
171401.375,218.874,-330.662,0,0
172703.0,223.92,-317.964,0,0
174004.625,229.008,-304.58,0,0
175306.25,234.499,-288.994,0,0
176607.875,241.868,-271.358,0,0
177909.5,252.238,-252.286,0,0
179211.125,266.274,-232.076,0,0
180512.75,285.583,-213.307,0,0
181814.375,307.383,-197.814,0,0
183116.0,330.747,-186.453,0,0
184417.625,353.869,-176.62,0,0
185719.25,376.006,-171.79,0,0
187021,391.204,-166.873,0,0
188322,401.41,-152.022,0,0
189624,418.308,-124.453,0,0
190926,452.264,-88.7059,0,0
192227,506.066,-59.0767,0,0
193529,570.86,-40.0445,0,0
194831,650.465,-32.7271,0,0
196132,738.722,-48.7941,0,0
197434,824.983,-87.872,0,0
198735,904.675,-144.648,0,0
200037,976.76,-223.336,0,0
201339,1034.12,-319.931,0,0
202640.35,1068.86,-442.379,0,0
203941.975,1057.3,-570.132,0,0
205243.6,1014.15,-678.949,0,0
206545.225,950.802,-765.018,0,0
207846.85,878.974,-824.671,0,0
209148.475,810.457,-862.902,0,0
210450.1,750.949,-889.728,0,0
211751.725,696.499,-917.247,0,0
213053.35,630.227,-939.614,0,0
214354.975,562.701,-943.389,0,0
215656.6,503.16,-933.67,0,0
216958.225,454.271,-916.864,0,0
218259.85,413.173,-897.104,0,0
219561,379.155,-875.712,0,0
220863,350.726,-854.055,0,0
222165,326.468,-832.077,0,0
223466,306.498,-809.415,0,0
224768,291.6,-786.284,0,0
226070,282.237,-763.768,0,0
227371,279.302,-745.156,0,0
228673,278.567,-734.53,0,0
229974,273.203,-729.703,0,0
231276,262.049,-723.761,0,0
232578,249.514,-713.57,0,0
233879,238.787,-700.129,0,0
235180.95,231.249,-685.096,0,0
236482.575,226.296,-670.322,0,0
237784.2,223.532,-656.193,0,0
239085.825,222.654,-642.77,0,0
240387.45,223.098,-630.502,0,0
241689.075,224.792,-618.953,0,0
242990.7,227.637,-608.211,0,0
244292.325,231.879,-598.258,0,0
245593.95,237.148,-589.413,0,0
246895.575,244.331,-580.683,0,0
248197.2,254.898,-574.074,0,0
249498.825,266.989,-572.143,0,0
250800,277.294,-573.456,0,0
252102,288.926,-574.904,0,0
253404,304.227,-582.162,0,0
254705,317.287,-599.338,0,0
256007,320.848,-623.124,0,0
257309,314.025,-646.13,0,0
258610,300.163,-664.774,0,0
259912,282.221,-678.05,0,0
261213,262.217,-685.555,0,0
262515,242.909,-687.836,0,0
263817,225.425,-686.683,0,0
265118,209.608,-683.628,0,0
266420,195.374,-678.85,0,0
267721.55,182.701,-672.933,0,0
269023.175,171.599,-666.416,0,0
270324.8,161.531,-659.575,0,0
271626.425,152.471,-652.66,0,0
272928.05,144.211,-645.454,0,0
274229.675,136.551,-638.108,0,0
275531.3,129.694,-630.45,0,0
276832.925,123.614,-622.618,0,0
278134.55,118.117,-614.787,0,0
279436.175,113.278,-606.657,0,0
280737.8,109.793,-598.373,0,0
282039.425,107.481,-591.088,0,0
283341,105.026,-584.645,0,0
284643,102.749,-578.187,0,0
285944,101.093,-572.07,0,0
287246,99.7283,-566.885,0,0
288548,97.7077,-561.933,0,0
289849,95.9601,-556.776,0,0
291151,94.5342,-551.936,0,0
292452,93.3262,-547.53,0,0
293754,91.9504,-543.708,0,0
295056,89.8588,-540.418,0,0
296357,86.8962,-536.612,0,0
297659,83.6393,-531.63,0,0
298960.525,81.6166,-525.384,0,0
300262.15,81.1395,-519.923,0,0
301563.775,80.8376,-515.547,0,0
302865.4,80.1895,-511.693,0,0
304167.025,79.2219,-507.751,0,0
305468.65,78.5204,-503.317,0,0
306770.275,78.966,-499.374,0,0
308071.9,79.0683,-496.931,0,0
309373.525,78.2366,-494.602,0,0
310675.15,77.1192,-492.006,0,0
311976.775,75.7341,-489.531,0,0
313278.4,74.14,-486.745,0,0
314580,72.5436,-483.809,0,0
315882,71.0182,-480.599,0,0
317183,69.5624,-477.56,0,0
318485,68.0668,-474.543,0,0
319787,66.4429,-471.432,0,0
321088,64.7563,-468.145,0,0
322390,63.3581,-464.469,0,0
323691,62.2505,-460.971,0,0
324993,61.2136,-457.612,0,0
326295,60.0606,-454.237,0,0
327596,58.9906,-450.823,0,0
328898,58.037,-447.441,0,0
330200,57.1412,-443.979,0,0
331501.125,56.289,-440.611,0,0
332802.75,55.5333,-437.169,0,0
334104.375,54.8532,-433.739,0,0
335406.0,54.3779,-430.398,0,0
336707.625,54.0347,-427.102,0,0
338009.25,53.6208,-423.965,0,0
339310.875,53.2246,-420.795,0,0
340612.5,52.9022,-417.594,0,0
341914.125,52.7739,-414.414,0,0
343215.75,52.9433,-411.434,0,0
344517.375,53.0782,-409.153,0,0
345819.0,52.4381,-406.853,0,0
347121,51.7294,-403.967,0,0
348422,51.2992,-400.984,0,0
349724,51.0815,-398.017,0,0
351025,51.0039,-395.134,0,0
352327,51.0034,-392.315,0,0
353629,51.0846,-389.717,0,0
354930,51.1081,-387.271,0,0
356232,50.8833,-384.807,0,0
357534,50.843,-382.143,0,0
358835,51.0064,-379.655,0,0
360137,51.1186,-377.423,0,0
361438,51.0169,-375.325,0,0
362740.1,50.7137,-373.163,0,0
364041.725,50.4234,-370.881,0,0
365343.35,50.1397,-368.434,0,0
366644.975,50.0149,-366.011,0,0
367946.6,49.8884,-363.595,0,0
369248.225,49.8174,-361.152,0,0
370549.85,49.8625,-358.721,0,0
371851.475,50.0496,-356.343,0,0
373153.1,50.411,-354.222,0,0
374454.725,50.617,-352.59,0,0
375756.35,50.2155,-350.995,0,0
377057.975,49.6953,-349.017,0,0
378359.6,49.1695,-346.931,0,0
379661,48.5432,-344.697,0,0
380963,47.864,-342.188,0,0
382264,47.5324,-339.339,0,0
383566,47.835,-336.628,0,0
384868,47.9718,-334.67,0,0
386169,47.574,-332.546,0,0
387471,47.2037,-330.152,0,0
388773,46.8902,-327.587,0,0
390074,46.7223,-324.962,0,0
391376,46.6333,-322.3,0,0
392677,46.605,-319.645,0,0
393979,46.6144,-316.979,0,0
395280.7,46.7096,-314.31,0,0
396582.325,46.8267,-311.625,0,0
397883.95,47.0854,-308.919,0,0
399185.575,47.3627,-306.215,0,0
400006.6,47.5155,-304.531,0,0