File: Accelerated corrosion test data/2025-10-01_12-27-23/sample_4.csv
Frequency (Hz),Impedance (ohms),Phase (Radians),Temperature (C),Humidity (%)
10000.0,264.533,-11839.5,0,0
11301.625,236.067,-10489.5,0,0
12603.25,213.677,-9410.73,0,0
13904.875,194.712,-8532.7,0,0
15206.5,182.589,-7810.35,0,0
16508.125,183.773,-7194.13,0,0
17809.75,157.363,-6691.35,0,0
19111.375,146.233,-6236.02,0,0
20413.0,142.159,-5837.51,0,0
21714.625,145.536,-5491.15,0,0
23016.25,126.253,-5193.46,0,0
24317.875,117.49,-4909.58,0,0
25619.5,113.293,-4657.12,0,0
26921.1,107.732,-4428.65,0,0
28222.7,119.612,-4222.18,0,0
29524.4,113.748,-4045.95,0,0
30826,100.069,-3875.7,0,0
32127.6,99.6927,-3715.65,0,0
33429.2,90.9398,-3575.3,0,0
34730.9,86.1443,-3437.4,0,0
36032.5,82.5297,-3309.92,0,0
37334.1,80.577,-3191.71,0,0
38635.7,77.9029,-3080.11,0,0
39937.4,77.4459,-2974.69,0,0
41239,80.1468,-2880.03,0,0
42540.6,79.6365,-2792.71,0,0
43842.225,74.4977,-2709.57,0,0
45143.85,72.0515,-2628.75,0,0
46445.475,71.3986,-2551.94,0,0
47747.1,70.6377,-2482.49,0,0
49048.725,66.8443,-2413.4,0,0
50350.35,65.1176,-2346.03,0,0
51651.975,64.5507,-2281.36,0,0
52953.6,66.4535,-2218.74,0,0
54255.225,74.3622,-2162.75,0,0
55556.85,72.3946,-2119.35,0,0
56858.475,66.2898,-2066.17,0,0
58160.1,67.0655,-2013.71,0,0
59461.7,71.3737,-1963.16,0,0
60763.3,80.6227,-1925.6,0,0
62065,70.3202,-1892.37,0,0
63366.6,64.9684,-1846.92,0,0
64668.2,65.0952,-1803.75,0,0
65969.8,66.8895,-1763.62,0,0
67271.5,70.7097,-1727.33,0,0
68573.1,74.1595,-1698.63,0,0
69874.7,66.706,-1668.57,0,0
71176.3,65.7933,-1634.54,0,0
72478,59.5632,-1603.36,0,0
73779.6,58.1705,-1566.71,0,0
75081.2,60.2651,-1534.15,0,0
76382.825,62.6766,-1505.31,0,0
77684.45,65.4205,-1477.52,0,0
78986.075,64.4519,-1455.16,0,0
80287.7,61.3319,-1428.45,0,0
81589.325,60.6723,-1402.43,0,0
82890.95,59.441,-1377.48,0,0
84192.575,58.2979,-1352.7,0,0
85494.2,57.4699,-1328.42,0,0
86795.825,56.8055,-1304.89,0,0
88097.45,55.5052,-1282.43,0,0
89399.075,53.9068,-1258.12,0,0
90700.7,53.8103,-1235.07,0,0
92002.3,54.0996,-1212.19,0,0
93303.9,55.3698,-1191.42,0,0
94605.6,54.067,-1171.11,0,0
95907.2,53.4201,-1148.76,0,0
97208.8,54.2588,-1127.14,0,0
98510.4,55.4665,-1105.94,0,0
99812.1,58.0357,-1085.28,0,0
101114,62.158,-1066.64,0,0
102415,61.2789,-1052.16,0,0
103717,58.1978,-1029.98,0,0
105019,61.8899,-1006.22,0,0
106320.175,68.1673,-986.182,0,0
107621.8,74.5859,-968.129,0,0
108923.425,82.5008,-951.044,0,0
110225.05,90.375,-937.996,0,0
111526.675,96.6971,-926.399,0,0
112828.3,102.372,-916,0,0
114129.925,106.561,-907.292,0,0
115431.55,109.018,-899.371,0,0
116733.175,108.917,-891.478,0,0
118034.8,106.641,-881.13,0,0
119336.425,107.916,-867.356,0,0
120638.05,112.896,-862.357,0,0
121939.675,105.894,-856.392,0,0
123241,100.79,-844.233,0,0
124543,97.7202,-831.782,0,0
125845,95.0713,-819.297,0,0
127146,92.1832,-808.191,0,0
128448,87.3112,-795.956,0,0
129749,81.1468,-781.5,0,0
131051,76.5441,-764.034,0,0
132353,73.9709,-745.531,0,0
133654,73.061,-726.699,0,0
134956,73.67,-707.715,0,0
136258,75.9363,-689.348,0,0
137559,78.8801,-671.923,0,0
138860.775,80.8023,-654.529,0,0
140162.4,83.9351,-635.777,0,0
141464.025,88.9605,-616.695,0,0
142765.65,94.964,-598.586,0,0
144067.275,101.487,-580.405,0,0
145368.9,109.266,-561.809,0,0
146670.525,118.56,-543.258,0,0
147972.15,129.451,-525.291,0,0
149273.775,141.778,-506.91,0,0
150575.4,157.322,-489.157,0,0
151877.025,176.193,-473.41,0,0
153178.65,197.622,-461.619,0,0
154480,218.976,-456.368,0,0
155782,235.651,-452.802,0,0
157084,251.504,-450.087,0,0
158385,266.345,-445.084,0,0
159687,286.938,-442.456,0,0
160988,304.383,-448.995,0,0
162290,311.699,-456.689,0,0
163592,316.165,-455.293,0,0
164893,325.721,-447.798,0,0
166195,343.01,-443.383,0,0
167497,367.199,-442.413,0,0
168798,396.235,-458.433,0,0
170100,411.007,-488.79,0,0
171401.375,408.645,-525.652,0,0
172703.0,383.502,-551.241,0,0
174004.625,349.528,-557.049,0,0
175306.25,322.19,-545.176,0,0
176607.875,304.569,-524.279,0,0
177909.5,297.724,-500.668,0,0
179211.125,298.128,-480.341,0,0
180512.75,300.791,-462.11,0,0
181814.375,304.342,-445.201,0,0
183116.0,307.746,-427.783,0,0
184417.625,312.374,-406.969,0,0
185719.25,320.678,-383.616,0,0
187021,334.078,-358,0,0
188322,353.278,-331.615,0,0
189624,379.374,-305.456,0,0
190926,413.544,-280.587,0,0
192227,457.063,-261.202,0,0
193529,506.929,-250.664,0,0
194831,559.88,-248.595,0,0
196132,616.697,-254.68,0,0
197434,678.41,-270.28,0,0
198735,745.369,-303.16,0,0
200037,807.53,-360.043,0,0
201339,849.368,-436.536,0,0
202640.35,865.055,-520.338,0,0
203941.975,857.869,-594.032,0,0
205243.6,841.745,-661.107,0,0
206545.225,816.708,-721.757,0,0
207846.85,782.307,-776.941,0,0
209148.475,731.799,-823.446,0,0
210450.1,675.881,-845.929,0,0
211751.725,629.381,-853.153,0,0
213053.35,591.375,-850.736,0,0
214354.975,566.231,-844.475,0,0
215656.6,552.604,-844.579,0,0
216958.225,536.263,-853.587,0,0
218259.85,515.753,-862.535,0,0
219561,493.209,-868.08,0,0
220863,472.649,-874.256,0,0
222165,449.31,-879.992,0,0
223466,424.558,-881.71,0,0
224768,401.136,-883.025,0,0
226070,375.37,-884.001,0,0
227371,346.453,-879.41,0,0
228673,318.944,-870.04,0,0
229974,294.069,-854.491,0,0
231276,275.288,-835.643,0,0
232578,262.064,-817.597,0,0
233879,251.762,-800.32,0,0
235180.95,244.468,-784.474,0,0
236482.575,239.013,-770.493,0,0
237784.2,234.372,-757.144,0,0
239085.825,232.365,-744.992,0,0
240387.45,231.227,-735.838,0,0
241689.075,229.32,-729.348,0,0
242990.7,225.612,-723.659,0,0
244292.325,220.405,-717.73,0,0
245593.95,213.841,-710.713,0,0
246895.575,207.902,-701.078,0,0
248197.2,204.768,-691.014,0,0
249498.825,202.279,-682.956,0,0
250800,198.786,-675.099,0,0
252102,195.069,-667.766,0,0
253404,188.286,-658.613,0,0
254705,183.13,-644.149,0,0
256007,181.503,-627.856,0,0
257309,184.508,-609.632,0,0
258610,192.671,-592.636,0,0
259912,205.962,-577.077,0,0
261213,225.206,-566.698,0,0
262515,246.286,-564.827,0,0
263817,266.687,-569.052,0,0
265118,283.788,-579.818,0,0
266420,298.162,-597.214,0,0
267721.55,302.079,-620.621,0,0
269023.175,296.725,-640.018,0,0
270324.8,285.213,-656.804,0,0
271626.425,271.346,-663.332,0,0
272928.05,263.025,-669.09,0,0
274229.675,251.846,-677.501,0,0
275531.3,235.695,-684.357,0,0
276832.925,214.952,-684.577,0,0
278134.55,196.218,-675.52,0,0
279436.175,184.34,-661.436,0,0
280737.8,181.13,-647.72,0,0
282039.425,180.695,-639.901,0,0
283341,178.821,-632.804,0,0
284643,180.101,-628.258,0,0
285944,177.992,-626.303,0,0
287246,173.102,-623.577,0,0
288548,166.458,-615.35,0,0
289849,166.763,-601.894,0,0
291151,176.249,-592.505,0,0
292452,188.625,-592.06,0,0
293754,197.528,-599.958,0,0
295056,198.766,-612.894,0,0
296357,190.972,-623.812,0,0
297659,179.326,-628.573,0,0
298960.525,168.607,-627.994,0,0
300262.15,160.115,-626.059,0,0
301563.775,152.122,-623.404,0,0
302865.4,144.161,-619.438,0,0
304167.025,137.529,-614.14,0,0
305468.65,132.277,-608.349,0,0
306770.275,128.399,-602.223,0,0
308071.9,126.132,-597.073,0,0
309373.525,123.921,-593.17,0,0
310675.15,121.128,-589.862,0,0
311976.775,117.725,-586.386,0,0
313278.4,114.278,-581.935,0,0
314580,111.939,-577.177,0,0
315882,110.558,-572.849,0,0
317183,109.589,-569.712,0,0
318485,108.493,-567.703,0,0
319787,105.961,-566.737,0,0
321088,101.838,-565.658,0,0
322390,95.9476,-563.786,0,0
323691,89.0992,-558.913,0,0
324993,84.3335,-551.666,0,0
326295,81.5284,-544.93,0,0
327596,79.0863,-538.299,0,0
328898,77.5171,-531.223,0,0
330200,77.419,-524.189,0,0
331501.125,78.7729,-518.495,0,0
332802.75,79.8951,-514.762,0,0
334104.375,79.7604,-511.721,0,0
335406.0,78.5632,-508.387,0,0
336707.625,76.9202,-504.23,0,0
338009.25,75.2868,-498.919,0,0
339310.875,74.9712,-492.469,0,0
340612.5,76.4621,-486.217,0,0
341914.125,79.2948,-480.609,0,0
343215.75,83.59,-476.876,0,0
344517.375,87.5241,-475.995,0,0
345819.0,89.3879,-476.585,0,0
347121,89.2858,-477.096,0,0
348422,88.0674,-476.839,0,0
349724,86.0801,-475.676,0,0
351025,83.8613,-473.592,0,0
352327,81.9177,-470.386,0,0
353629,80.749,-466.535,0,0
354930,80.879,-462.66,0,0
356232,81.3627,-460.162,0,0
357534,81.1355,-458.122,0,0
358835,79.9622,-456.062,0,0
360137,78.283,-452.546,0,0
361438,77.8817,-448.051,0,0
362740.1,78.4722,-444.026,0,0
364041.725,79.5309,-440.634,0,0
365343.35,80.1026,-437.96,0,0
366644.975,79.9876,-434.282,0,0
367946.6,81.079,-429.569,0,0
369248.225,83.9243,-424.75,0,0
370549.85,88.722,-421.508,0,0
371851.475,94.0287,-420.483,0,0
373153.1,98.8898,-422.245,0,0
374454.725,100.847,-426.058,0,0
375756.35,99.9368,-428.4,0,0
377057.975,99.1712,-429.39,0,0
378359.6,98.1454,-430.346,0,0
379661,96.4728,-430.661,0,0
380963,95.3131,-430.357,0,0
382264,94.2841,-430.179,0,0
383566,93.7286,-430.393,0,0
384868,92.3619,-432.27,0,0
386169,88.1642,-433.711,0,0
387471,83.022,-432.372,0,0
388773,78.8883,-428.739,0,0
390074,77.4814,-424.363,0,0
391376,78.0274,-422.012,0,0
392677,77.2891,-422.236,0,0
393979,73.7174,-422.307,0,0
395280.7,69.0657,-419.999,0,0
396582.325,65.3019,-415.818,0,0
397883.95,62.8141,-411.101,0,0
399185.575,61.1569,-406.232,0,0
400006.6,60.4163,-403.14,0,0