File: Accelerated corrosion test data/2025-10-23_18-00-04/sample_1.csv
Frequency (Hz),Impedance (ohms),Phase (Radians),Temperature (C),Humidity (%)
10000.0,241.757,-12220.5,0,0
11301.625,215.079,-10824.5,0,0
12603.25,195.529,-9722.54,0,0
13904.875,182.728,-8797.88,0,0
15206.5,190.216,-8062.84,0,0
16508.125,155.302,-7440.02,0,0
17809.75,144.603,-6902.46,0,0
19111.375,135.748,-6433.88,0,0
20413.0,155.961,-5989.43,0,0
21714.625,135.218,-5671.45,0,0
23016.25,121.777,-5370.38,0,0
24317.875,113.192,-5077.02,0,0
25619.5,105.184,-4811.9,0,0
26921.1,113.966,-4561.72,0,0
28222.7,110.612,-4359.3,0,0
29524.4,107.871,-4193.52,0,0
30826,100.923,-4005.62,0,0
32127.6,97.916,-3847.6,0,0
33429.2,88.9285,-3703.94,0,0
34730.9,81.887,-3561.57,0,0
36032.5,77.9928,-3430.21,0,0
37334.1,75.4731,-3307.97,0,0
38635.7,72.7745,-3194.01,0,0
39937.4,70.8653,-3086.95,0,0
41239,72.1757,-2988.04,0,0
42540.6,70.4958,-2895.41,0,0
43842.225,68.1099,-2809.01,0,0
45143.85,68.1187,-2727.62,0,0
46445.475,65.0045,-2650.13,0,0
47747.1,63.9675,-2576.91,0,0
49048.725,61.5971,-2506.59,0,0
50350.35,59.5535,-2440.08,0,0
51651.975,58.6786,-2376.34,0,0
52953.6,57.6362,-2315.39,0,0
54255.225,56.5553,-2258.37,0,0
55556.85,55.6593,-2202.69,0,0
56858.475,54.7767,-2149.54,0,0
58160.1,54.4388,-2098.96,0,0
59461.7,54.0927,-2050.99,0,0
60763.3,54.26,-2004.89,0,0
62065,52.9493,-1961.03,0,0
63366.6,52.1663,-1917.46,0,0
64668.2,52.6784,-1875.06,0,0
65969.8,54.8316,-1837.25,0,0
67271.5,53.5992,-1801.07,0,0
68573.1,52.8701,-1765.12,0,0
69874.7,52.1387,-1731.09,0,0
71176.3,49.9383,-1696.26,0,0
72478,48.2459,-1662.68,0,0
73779.6,47.8606,-1629.21,0,0
75081.2,48.2225,-1596.8,0,0
76382.825,48.7835,-1565.96,0,0
77684.45,50.0724,-1536.44,0,0
78986.075,51.6314,-1508.89,0,0
80287.7,50.7809,-1482.26,0,0
81589.325,50.216,-1454.53,0,0
82890.95,50.8684,-1427.7,0,0
84192.575,52.4226,-1401.58,0,0
85494.2,54.2852,-1376.62,0,0
86795.825,55.5065,-1353.37,0,0
88097.45,55.9684,-1330.07,0,0
89399.075,57.6244,-1305.22,0,0
90700.7,60.9724,-1282.35,0,0
92002.3,67.0786,-1261.14,0,0
93303.9,74.5815,-1243.05,0,0
94605.6,73.3411,-1237.05,0,0
95907.2,67.0385,-1217.68,0,0
97208.8,65.2475,-1197.32,0,0
98510.4,64.26,-1177.28,0,0
99812.1,63.3975,-1157.7,0,0
101114,62.974,-1137.31,0,0
102415,63.4497,-1115.53,0,0
103717,68.6752,-1094.26,0,0
105019,75.3364,-1077.57,0,0
106320.175,80.5248,-1061.24,0,0
107621.8,87.0665,-1048.16,0,0
108923.425,91.5031,-1037.15,0,0
110225.05,94.0849,-1028.3,0,0
111526.675,93.9541,-1016.04,0,0
112828.3,97.468,-1006.17,0,0
114129.925,96.3274,-999.218,0,0
115431.55,92.699,-989.768,0,0
116733.175,88.4456,-978.025,0,0
118034.8,83.7371,-964.193,0,0
119336.425,81.5428,-948.781,0,0
120638.05,81.5285,-934.433,0,0
121939.675,80.219,-921.67,0,0
123241,78.8407,-906.753,0,0
124543,78.7641,-891.972,0,0
125845,79.3281,-877.168,0,0
127146,80.3729,-862.884,0,0
128448,82.1759,-848.181,0,0
129749,85.0998,-834.016,0,0
131051,89.6429,-820.97,0,0
132353,93.8166,-809.872,0,0
133654,96.6281,-799.298,0,0
134956,99.7279,-788.392,0,0
136258,102.927,-777.665,0,0
137559,108.194,-768.062,0,0
138860.775,110.382,-762.523,0,0
140162.4,109.537,-753.781,0,0
141464.025,109.658,-743.88,0,0
142765.65,110.262,-733.088,0,0
144067.275,111.626,-721.68,0,0
145368.9,114.174,-710.253,0,0
146670.525,117.544,-700.497,0,0
147972.15,119.178,-692.482,0,0
149273.775,120.817,-682.053,0,0
150575.4,121.831,-673.021,0,0
151877.025,121.165,-661.851,0,0
153178.65,121.04,-647.332,0,0
154480,124.629,-631.131,0,0
155782,131.251,-614.343,0,0
157084,143.109,-598.329,0,0
158385,155.467,-589.656,0,0
159687,164.377,-578.087,0,0
160988,182.029,-566.004,0,0
162290,202.046,-565.529,0,0
163592,213.418,-568.081,0,0
164893,226.418,-567.684,0,0
166195,239.814,-574.754,0,0
167497,247.106,-585.192,0,0
168798,247.017,-597.806,0,0
170100,238.81,-605.787,0,0
171401.375,230.016,-604.589,0,0
172703.0,225.587,-599.706,0,0
174004.625,223.308,-595.894,0,0
175306.25,221.431,-591.629,0,0
176607.875,220.277,-588.938,0,0
177909.5,218.067,-584.872,0,0
179211.125,215.702,-583.864,0,0
180512.75,207.425,-582.238,0,0
181814.375,198.796,-573,0,0
183116.0,192.227,-561.689,0,0
184417.625,187.328,-547.52,0,0
185719.25,186.089,-531.936,0,0
187021,187.065,-517.083,0,0
188322,190.563,-501.705,0,0
189624,194.184,-488.348,0,0
190926,197.169,-473.361,0,0
192227,203.033,-456.488,0,0
193529,210.923,-439.096,0,0
194831,221.832,-422.094,0,0
196132,235.065,-404.82,0,0
197434,251.581,-388.932,0,0
198735,269.648,-374.42,0,0
200037,288.825,-358.897,0,0
201339,313.164,-343.516,0,0
202640.35,344.53,-326.946,0,0
203941.975,386.988,-316.191,0,0
205243.6,438.298,-322.187,0,0
206545.225,484.154,-347.145,0,0
207846.85,514.75,-382.908,0,0
209148.475,533.718,-422.317,0,0
210450.1,534.544,-463.004,0,0
211751.725,520.819,-482.375,0,0
213053.35,520.742,-482.916,0,0
214354.975,534.322,-493.804,0,0
215656.6,544.714,-509.469,0,0
216958.225,554.496,-524.913,0,0
218259.85,564.569,-542.752,0,0
219561,576.889,-558.009,0,0
220863,595.291,-580,0,0
222165,613.838,-615.716,0,0
223466,621.537,-662.764,0,0
224768,612.501,-712.829,0,0
226070,594.28,-756.593,0,0
227371,564.821,-799.739,0,0
228673,524.266,-833.788,0,0
229974,477.214,-852.637,0,0
231276,434.347,-857.065,0,0
232578,398.321,-854.435,0,0
233879,369.021,-847.928,0,0
235180.95,346.355,-842.608,0,0
236482.575,323.012,-839.533,0,0
237784.2,299.033,-834.242,0,0
239085.825,276.385,-825.275,0,0
240387.45,256.829,-814.522,0,0
241689.075,239.772,-803.226,0,0
242990.7,224.647,-791.122,0,0
244292.325,212.465,-779.478,0,0
245593.95,200.704,-768.853,0,0
246895.575,188.901,-758.009,0,0
248197.2,178.465,-745.32,0,0
249498.825,169.709,-732.857,0,0
250800,162.403,-720.215,0,0
252102,156.376,-708.331,0,0
253404,150.572,-695.932,0,0
254705,146.986,-682.764,0,0
256007,144.939,-671.265,0,0
257309,143.153,-659.895,0,0
258610,142.447,-648.28,0,0
259912,144.021,-636.649,0,0
261213,147.96,-627,0,0
262515,152.456,-619.633,0,0
263817,157.407,-613.954,0,0
265118,163.144,-609.772,0,0
266420,170.192,-609.72,0,0
267721.55,174.261,-615.328,0,0
269023.175,170.795,-622.896,0,0
270324.8,161.027,-625.919,0,0
271626.425,149.933,-622.575,0,0
272928.05,142.191,-614.016,0,0
274229.675,138.828,-604.929,0,0
275531.3,137.507,-596.743,0,0
276832.925,138.242,-589.472,0,0
278134.55,140.053,-584.242,0,0
279436.175,141.324,-581.173,0,0
280737.8,141.126,-578.633,0,0
282039.425,140.852,-576.237,0,0
283341,138.503,-574.237,0,0
284643,136.459,-569.925,0,0
285944,135.148,-566.419,0,0
287246,132.021,-562.343,0,0
288548,129.941,-554.91,0,0
289849,131.852,-547.772,0,0
291151,134.932,-544.064,0,0
292452,135.726,-541.676,0,0
293754,134.95,-538.24,0,0
295056,134.638,-532.702,0,0
296357,136.736,-526.155,0,0
297659,141.222,-521.14,0,0
298960.525,145.872,-517.838,0,0
300262.15,150.645,-515.085,0,0
301563.775,156.931,-512.965,0,0
302865.4,164.098,-514.573,0,0
304167.025,168.928,-517.498,0,0
305468.65,173.079,-521.419,0,0
306770.275,176.715,-526.608,0,0
308071.9,178.604,-533.757,0,0
309373.525,177.189,-541.209,0,0
310675.15,174.205,-547.524,0,0
311976.775,169.63,-553.32,0,0
313278.4,163.538,-557.759,0,0
314580,157.06,-560.361,0,0
315882,150.727,-562.817,0,0
317183,143.219,-564.627,0,0
318485,134.816,-564.857,0,0
319787,126.582,-563.139,0,0
321088,118.757,-559.956,0,0
322390,111.692,-555.146,0,0
323691,106.668,-548.998,0,0
324993,103.856,-543.158,0,0
326295,102.42,-538.433,0,0
327596,101.423,-535.251,0,0
328898,99.9475,-533.095,0,0
330200,97.8407,-531.414,0,0
331501.125,94.9265,-529.862,0,0
332802.75,91.4114,-527.992,0,0
334104.375,87.6468,-525.699,0,0
335406.0,83.5569,-522.619,0,0
336707.625,79.8109,-518.838,0,0
338009.25,76.6821,-514.673,0,0
339310.875,73.8361,-510.555,0,0
340612.5,71.411,-506.345,0,0
341914.125,69.3039,-502.309,0,0
343215.75,67.2046,-498.339,0,0
344517.375,65.1642,-494.425,0,0
345819.0,62.9884,-490.272,0,0
347121,60.9622,-485.776,0,0
348422,59.4607,-480.942,0,0
349724,58.5655,-476.248,0,0
351025,57.9486,-471.844,0,0
352327,57.3815,-467.594,0,0
353629,56.9952,-463.611,0,0
354930,56.5708,-459.715,0,0
356232,56.2878,-455.632,0,0
357534,56.1365,-451.759,0,0
358835,55.977,-447.965,0,0
360137,56.1363,-444.022,0,0
361438,56.4073,-440.4,0,0
362740.1,56.5217,-436.975,0,0
364041.725,56.7777,-433.175,0,0
365343.35,57.3864,-429.492,0,0
366644.975,57.9194,-426.108,0,0
367946.6,58.1746,-422.39,0,0
369248.225,59.0984,-418.048,0,0
370549.85,60.8207,-413.8,0,0
371851.475,63.5445,-409.949,0,0
373153.1,66.8391,-407.181,0,0
374454.725,70.004,-405.562,0,0
375756.35,72.724,-404.554,0,0
377057.975,75.1952,-403.945,0,0
378359.6,77.3071,-403.969,0,0
379661,78.6698,-404.082,0,0
380963,80.069,-403.809,0,0
382264,82.0483,-404.627,0,0
383566,82.8726,-406.804,0,0
384868,81.7315,-408.999,0,0
386169,79.5925,-410.078,0,0
387471,76.9456,-410.289,0,0
388773,74.18,-409.302,0,0
390074,72.1923,-407.707,0,0
391376,70.5341,-406.324,0,0
392677,68.6507,-405.091,0,0
393979,66.2593,-403.563,0,0
395280.7,63.8372,-401.123,0,0
396582.325,61.7334,-398.189,0,0
397883.95,60.0845,-394.819,0,0
399185.575,58.9644,-391.216,0,0
400006.6,58.5757,-389.032,0,0