File: Accelerated corrosion test data/2025-10-23_18-00-04/sample_4.csv
Frequency (Hz),Impedance (ohms),Phase (Radians),Temperature (C),Humidity (%)
10000.0,263.441,-11933.7,0,0
11301.625,234.207,-10572,0,0
12603.25,213.952,-9483.73,0,0
13904.875,193.232,-8598.83,0,0
15206.5,180.606,-7870.04,0,0
16508.125,193.653,-7265.43,0,0
17809.75,155.529,-6743.12,0,0
19111.375,144.933,-6284.29,0,0
20413.0,140.09,-5880.68,0,0
21714.625,148.447,-5535.43,0,0
23016.25,124.853,-5233.37,0,0
24317.875,115.444,-4947.71,0,0
25619.5,111.474,-4693.27,0,0
26921.1,106.138,-4462.21,0,0
28222.7,121.304,-4258.58,0,0
29524.4,112.743,-4078.96,0,0
30826,97.9538,-3905.1,0,0
32127.6,100.31,-3744.2,0,0
33429.2,89.1675,-3602.97,0,0
34730.9,84.3025,-3463.55,0,0
36032.5,81.2473,-3335.52,0,0
37334.1,79.133,-3215.97,0,0
38635.7,76.5,-3103.4,0,0
39937.4,76.551,-2996.66,0,0
41239,79.6663,-2902.84,0,0
42540.6,78.3579,-2813.95,0,0
43842.225,72.7895,-2729.94,0,0
45143.85,71.1174,-2648.95,0,0
46445.475,70.4934,-2571.4,0,0
47747.1,69.9061,-2500.66,0,0
49048.725,65.7695,-2431.37,0,0
50350.35,63.8994,-2363.93,0,0
51651.975,63.2525,-2298.87,0,0
52953.6,64.7288,-2235.64,0,0
54255.225,73.0474,-2178.67,0,0
55556.85,71.651,-2135.42,0,0
56858.475,65.0935,-2081.26,0,0
58160.1,66.2699,-2028.89,0,0
59461.7,70.2198,-1977.93,0,0
60763.3,79.9251,-1939.17,0,0
62065,69.8123,-1906.69,0,0
63366.6,63.2594,-1860.91,0,0
64668.2,63.7011,-1817.2,0,0
65969.8,65.9241,-1775.88,0,0
67271.5,69.7581,-1739.47,0,0
68573.1,73.4115,-1710.38,0,0
69874.7,66.1171,-1680.62,0,0
71176.3,64.3959,-1646.21,0,0
72478,58.7624,-1614.28,0,0
73779.6,57.3443,-1578.34,0,0
75081.2,59.2854,-1544.84,0,0
76382.825,61.7461,-1515.7,0,0
77684.45,64.8555,-1487.99,0,0
78986.075,63.7551,-1465.44,0,0
80287.7,60.9189,-1438.58,0,0
81589.325,60.3794,-1412.53,0,0
82890.95,59.0947,-1387.66,0,0
84192.575,57.8669,-1362.67,0,0
85494.2,56.7898,-1338.44,0,0
86795.825,55.971,-1314.75,0,0
88097.45,54.43,-1291.78,0,0
89399.075,53.2199,-1267.49,0,0
90700.7,53.1084,-1244.37,0,0
92002.3,53.4537,-1221.04,0,0
93303.9,54.7833,-1200.02,0,0
94605.6,53.3863,-1180.05,0,0
95907.2,52.508,-1157.5,0,0
97208.8,53.1877,-1135.73,0,0
98510.4,54.4704,-1114.07,0,0
99812.1,56.8163,-1093.13,0,0
101114,60.7234,-1074.56,0,0
102415,59.9258,-1059.67,0,0
103717,57.4127,-1036.97,0,0
105019,60.7487,-1013.24,0,0
106320.175,67.1383,-992.398,0,0
107621.8,73.8444,-974.233,0,0
108923.425,82.2452,-956.991,0,0
110225.05,90.8559,-943.863,0,0
111526.675,97.2445,-933.011,0,0
112828.3,102.852,-922.925,0,0
114129.925,106.58,-914.197,0,0
115431.55,108.775,-906.06,0,0
116733.175,108.838,-897.704,0,0
118034.8,107.144,-887.341,0,0
119336.425,108.363,-873.973,0,0
120638.05,113.395,-869.097,0,0
121939.675,106.154,-863.006,0,0
123241,101.302,-850.732,0,0
124543,98.3338,-837.621,0,0
125845,97.1269,-825.884,0,0
127146,94.2935,-815.517,0,0
128448,88.8158,-805.487,0,0
129749,81.0959,-790.835,0,0
131051,75.5319,-773.024,0,0
132353,72.5469,-754.159,0,0
133654,71.3375,-735.161,0,0
134956,71.6346,-716.253,0,0
136258,73.3315,-697.648,0,0
137559,75.2827,-680.066,0,0
138860.775,77.2048,-661.439,0,0
140162.4,80.6408,-642.396,0,0
141464.025,85.7184,-623.22,0,0
142765.65,91.5836,-604.987,0,0
144067.275,98.1268,-586.814,0,0
145368.9,105.481,-568.301,0,0
146670.525,114.385,-549.674,0,0
147972.15,124.688,-531.368,0,0
149273.775,136.39,-513.251,0,0
150575.4,150.72,-494.418,0,0
151877.025,168.829,-476.784,0,0
153178.65,191.477,-463.627,0,0
154480,213.615,-458.064,0,0
155782,231.371,-454.182,0,0
157084,247.306,-450.957,0,0
158385,262.219,-446.949,0,0
159687,282.61,-445.517,0,0
160988,297.229,-450.553,0,0
162290,307.492,-455.148,0,0
163592,312.024,-457.079,0,0
164893,317.956,-449.484,0,0
166195,333.774,-438.186,0,0
167497,362.061,-436.88,0,0
168798,390.525,-448.609,0,0
170100,413.851,-477.857,0,0
171401.375,413.856,-517.721,0,0
172703.0,391.015,-549.165,0,0
174004.625,357.129,-558.911,0,0
175306.25,326.091,-550.899,0,0
176607.875,305.381,-529.945,0,0
177909.5,295.846,-506.223,0,0
179211.125,294.479,-482.903,0,0
180512.75,298.177,-463.771,0,0
181814.375,302.289,-447.538,0,0
183116.0,304.74,-431.206,0,0
184417.625,308.204,-410.88,0,0
185719.25,315.312,-389.142,0,0
187021,324.204,-364.801,0,0
188322,338.296,-337.357,0,0
189624,358.389,-308.196,0,0
190926,386.8,-278.108,0,0
192227,425.205,-249.448,0,0
193529,473.538,-227.134,0,0
194831,528.335,-212.462,0,0
196132,590.21,-204.072,0,0
197434,663.155,-205.439,0,0
198735,747.06,-223.439,0,0
200037,837.211,-273.825,0,0
201339,910.118,-357.625,0,0
202640.35,951.982,-458.175,0,0
203941.975,963.488,-566.429,0,0
205243.6,948.052,-664.167,0,0
206545.225,914.993,-753.737,0,0
207846.85,857.74,-831.716,0,0
209148.475,785.148,-883.308,0,0
210450.1,715.298,-906.302,0,0
211751.725,656.578,-913.283,0,0
213053.35,607.039,-911.358,0,0
214354.975,572.563,-900.164,0,0
215656.6,549.972,-898.92,0,0
216958.225,523.464,-899.834,0,0
218259.85,499.84,-899.921,0,0
219561,476.711,-902.019,0,0
220863,450.353,-901.372,0,0
222165,426.665,-897.822,0,0
223466,406.874,-892.469,0,0
224768,388.346,-891.598,0,0
226070,366.233,-891.481,0,0
227371,340.547,-888.754,0,0
228673,313.65,-879.714,0,0
229974,290.531,-865.626,0,0
231276,271.103,-849.792,0,0
232578,255.685,-832.998,0,0
233879,242.766,-815.818,0,0
235180.95,233.402,-799.627,0,0
236482.575,224.652,-784.18,0,0
237784.2,218.78,-767.977,0,0
239085.825,215.676,-753.663,0,0
240387.45,213.785,-741.538,0,0
241689.075,212.668,-731.656,0,0
242990.7,210.608,-724.122,0,0
244292.325,206.372,-717.397,0,0
245593.95,200.844,-709.121,0,0
246895.575,195.37,-699.214,0,0
248197.2,191.449,-687.93,0,0
249498.825,189.787,-676.87,0,0
250800,188.974,-667.751,0,0
252102,186.174,-659.313,0,0
253404,183.063,-648.907,0,0
254705,179.587,-637.15,0,0
256007,177.813,-621.515,0,0
257309,180.538,-603.554,0,0
258610,188.698,-585.583,0,0
259912,203.245,-570.343,0,0
261213,221.104,-560.027,0,0
262515,242.881,-554.687,0,0
263817,264.899,-559.64,0,0
265118,281.305,-569.059,0,0
266420,297.41,-581.612,0,0
267721.55,309.591,-602.905,0,0
269023.175,309.6,-628.729,0,0
270324.8,298.518,-648.063,0,0
271626.425,287.165,-660.31,0,0
272928.05,273.409,-669.845,0,0
274229.675,261.581,-677.176,0,0
275531.3,245.152,-684.976,0,0
276832.925,223.129,-686.145,0,0
278134.55,202.997,-675.835,0,0
279436.175,194.765,-660.713,0,0
280737.8,191.374,-652.297,0,0
282039.425,188.497,-643.961,0,0
283341,188.151,-638.116,0,0
284643,187.501,-636.5,0,0
285944,181.354,-636.408,0,0
287246,173.649,-630.004,0,0
288548,167.428,-620.523,0,0
289849,167.245,-606.934,0,0
291151,175.691,-596.253,0,0
292452,187.902,-594.553,0,0
293754,196.974,-601.181,0,0
295056,199.426,-612.885,0,0
296357,192.697,-623.497,0,0
297659,182.451,-628.093,0,0
298960.525,172.973,-629.005,0,0
300262.15,163.863,-628.167,0,0
301563.775,155.516,-625.429,0,0
302865.4,148.05,-622.154,0,0
304167.025,140.735,-617.582,0,0
305468.65,134.603,-612.11,0,0
306770.275,129.76,-605.696,0,0
308071.9,127.12,-599.6,0,0
309373.525,124.988,-595.57,0,0
310675.15,121.664,-591.71,0,0
311976.775,118.488,-586.952,0,0
313278.4,116.354,-581.926,0,0
314580,114.915,-577.843,0,0
315882,113.56,-574.159,0,0
317183,112.38,-571.059,0,0
318485,111.257,-568.667,0,0
319787,109.577,-567.713,0,0
321088,106.049,-567.332,0,0
322390,100.3,-565.955,0,0
323691,93.6699,-561.892,0,0
324993,88.4846,-555.829,0,0
326295,84.664,-549.313,0,0
327596,81.8396,-542.763,0,0
328898,79.3996,-535.819,0,0
330200,78.7152,-528.321,0,0
331501.125,79.7594,-521.98,0,0
332802.75,81.3585,-517.922,0,0
334104.375,81.3457,-515.161,0,0
335406.0,79.9048,-512.041,0,0
336707.625,78.0649,-507.846,0,0
338009.25,76.3557,-502.801,0,0
339310.875,75.3279,-496.503,0,0
340612.5,76.0972,-489.79,0,0
341914.125,78.7457,-483.711,0,0
343215.75,82.9027,-479.692,0,0
344517.375,86.5333,-477.971,0,0
345819.0,88.8215,-477.681,0,0
347121,89.3797,-477.88,0,0
348422,88.7791,-477.575,0,0
349724,87.5053,-476.864,0,0
351025,85.3692,-475.25,0,0
352327,83.3042,-472.359,0,0
353629,82.342,-468.956,0,0
354930,81.5935,-465.936,0,0
356232,80.9899,-462.608,0,0
357534,80.865,-459.653,0,0
358835,80.2342,-457.232,0,0
360137,79.0992,-454.053,0,0
361438,78.5364,-450.116,0,0
362740.1,78.4552,-446.39,0,0
364041.725,78.6604,-442.61,0,0
365343.35,79.0426,-438.832,0,0
366644.975,79.5197,-434.728,0,0
367946.6,80.7858,-429.947,0,0
369248.225,83.3496,-425.326,0,0
370549.85,87.5942,-421.105,0,0
371851.475,93.6316,-419.111,0,0
373153.1,99.0986,-420.52,0,0
374454.725,101.9,-423.694,0,0
375756.35,102.303,-426.44,0,0
377057.975,101.613,-428.239,0,0
378359.6,100.749,-428.834,0,0
379661,100.181,-429.611,0,0
380963,98.8456,-429.96,0,0
382264,98.3053,-429.765,0,0
383566,98.1617,-430.616,0,0
384868,97.0268,-433.232,0,0
386169,92.607,-435.367,0,0
387471,86.9196,-434.357,0,0
388773,82.9384,-430.728,0,0
390074,81.7646,-427.017,0,0
391376,81.5171,-425.67,0,0
392677,79.5344,-425.634,0,0
393979,75.9654,-424.845,0,0
395280.7,71.8929,-422.556,0,0
396582.325,68.1826,-419.094,0,0
397883.95,64.9824,-414.79,0,0
399185.575,62.608,-409.829,0,0
400006.6,61.6193,-406.492,0,0