File: Accelerated corrosion test data/2025-10-23_18-00-04/sample_3.csv
Frequency (Hz),Impedance (ohms),Phase (Radians),Temperature (C),Humidity (%)
10000.0,251.194,-11908.3,0,0
11301.625,224.059,-10547.6,0,0
12603.25,202.924,-9465.99,0,0
13904.875,185.963,-8584.39,0,0
15206.5,174.83,-7844.6,0,0
16508.125,161.303,-7246.08,0,0
17809.75,156.291,-6713.15,0,0
19111.375,146.059,-6258.19,0,0
20413.0,166.079,-5853.96,0,0
21714.625,139.378,-5528.32,0,0
23016.25,128.404,-5219.55,0,0
24317.875,119.255,-4938.1,0,0
25619.5,113.882,-4687.81,0,0
26921.1,109.058,-4454.76,0,0
28222.7,104.049,-4245.72,0,0
29524.4,108.472,-4067.8,0,0
30826,102.051,-3893.94,0,0
32127.6,102.267,-3727.19,0,0
33429.2,99.2317,-3603.07,0,0
34730.9,87.7464,-3463.35,0,0
36032.5,83.3346,-3334.02,0,0
37334.1,80.1354,-3214.79,0,0
38635.7,77.8822,-3103.8,0,0
39937.4,75.4814,-3000.13,0,0
41239,74.0638,-2901.93,0,0
42540.6,73.1547,-2811.59,0,0
43842.225,71.7694,-2725.31,0,0
45143.85,70.9638,-2644.71,0,0
46445.475,69.8131,-2568.38,0,0
47747.1,70.0749,-2495.35,0,0
49048.725,68.458,-2429.04,0,0
50350.35,66.3666,-2363.38,0,0
51651.975,65.8946,-2299.89,0,0
52953.6,66.2041,-2239.78,0,0
54255.225,68.8654,-2184.29,0,0
55556.85,66.4318,-2135.81,0,0
56858.475,61.6325,-2082.84,0,0
58160.1,60.9305,-2030.37,0,0
59461.7,61.3805,-1980.68,0,0
60763.3,62.7585,-1933.64,0,0
62065,64.6489,-1888.18,0,0
63366.6,68.5479,-1843.9,0,0
64668.2,77.3454,-1801.65,0,0
65969.8,91.3044,-1776.5,0,0
67271.5,75.4202,-1749.81,0,0
68573.1,75.8829,-1711.94,0,0
69874.7,76.631,-1682.48,0,0
71176.3,71.4761,-1652.3,0,0
72478,70.3612,-1619.1,0,0
73779.6,69.1312,-1590.81,0,0
75081.2,65.4063,-1562.85,0,0
76382.825,61.5674,-1533.62,0,0
77684.45,58.7368,-1504.65,0,0
78986.075,56.2772,-1475.89,0,0
80287.7,54.6326,-1447.56,0,0
81589.325,53.503,-1420.06,0,0
82890.95,52.7754,-1393.4,0,0
84192.575,52.4711,-1367.52,0,0
85494.2,52.3088,-1342.28,0,0
86795.825,52.3002,-1317.78,0,0
88097.45,52.6889,-1293.68,0,0
89399.075,54.117,-1269.81,0,0
90700.7,55.9983,-1248.03,0,0
92002.3,57.9402,-1227.13,0,0
93303.9,60.4325,-1207.56,0,0
94605.6,61.0837,-1192.61,0,0
95907.2,56.2014,-1174.24,0,0
97208.8,55.0127,-1152.73,0,0
98510.4,54.8346,-1132.62,0,0
99812.1,54.6806,-1113.24,0,0
101114,54.5166,-1093.31,0,0
102415,56.1004,-1072.86,0,0
103717,59.8152,-1054.89,0,0
105019,63.0949,-1040.39,0,0
106320.175,63.1117,-1026.36,0,0
107621.8,61.4688,-1010.94,0,0
108923.425,59.5256,-993.847,0,0
110225.05,59.5157,-975.591,0,0
111526.675,61.4468,-957.553,0,0
112828.3,63.5442,-941.556,0,0
114129.925,64.8083,-925.641,0,0
115431.55,66.4076,-908.626,0,0
116733.175,69.7781,-891.782,0,0
118034.8,75.6738,-875.013,0,0
119336.425,82.2505,-862.589,0,0
120638.05,89.8688,-856.365,0,0
121939.675,85.6962,-848.156,0,0
123241,86.227,-834.007,0,0
124543,88.2237,-821.946,0,0
125845,90.3882,-811.145,0,0
127146,90.7841,-801.576,0,0
128448,89.8006,-791.286,0,0
129749,88.6554,-779.098,0,0
131051,89.5155,-767.183,0,0
132353,88.4951,-756.34,0,0
133654,87.1434,-744.715,0,0
134956,85.6929,-732.097,0,0
136258,84.1797,-718.863,0,0
137559,83.4287,-703.601,0,0
138860.775,84.7715,-690.073,0,0
140162.4,84.1986,-677.042,0,0
141464.025,82.8957,-663.173,0,0
142765.65,81.9503,-647.054,0,0
144067.275,82.0066,-629.822,0,0
145368.9,83.491,-611.717,0,0
146670.525,85.8844,-592.909,0,0
147972.15,89.9073,-573.187,0,0
149273.775,95.8265,-552.877,0,0
150575.4,105.745,-532.601,0,0
151877.025,118.132,-515.313,0,0
153178.65,129.706,-501.513,0,0
154480,139.71,-488.022,0,0
155782,149.368,-472.402,0,0
157084,161.134,-455.533,0,0
158385,176.21,-445.021,0,0
159687,180.617,-430.32,0,0
160988,193.408,-405.447,0,0
162290,215.439,-379.632,0,0
163592,246.679,-353.279,0,0
164893,295.735,-338.038,0,0
166195,350.261,-344.397,0,0
167497,392.998,-376.086,0,0
168798,412.692,-413.085,0,0
170100,414.905,-447.974,0,0
171401.375,407.55,-462.608,0,0
172703.0,409.434,-467.723,0,0
174004.625,414.703,-481.35,0,0
175306.25,420.865,-495.649,0,0
176607.875,423.038,-524.408,0,0
177909.5,394.689,-543.305,0,0
179211.125,370.005,-533.415,0,0
180512.75,365.821,-520.284,0,0
181814.375,370.967,-515.822,0,0
183116.0,370.703,-523.071,0,0
184417.625,355.397,-526.728,0,0
185719.25,337.937,-518.897,0,0
187021,329.944,-497.166,0,0
188322,330.442,-480.702,0,0
189624,332.36,-460.887,0,0
190926,342.405,-446.034,0,0
192227,349.727,-431.514,0,0
193529,361.363,-412.354,0,0
194831,381.646,-395.487,0,0
196132,412.04,-384.624,0,0
197434,438.376,-393.745,0,0
198735,449.472,-401.647,0,0
200037,458.756,-402.272,0,0
201339,467.836,-394.568,0,0
202640.35,493.369,-385.058,0,0
203941.975,521.989,-386.729,0,0
205243.6,548.43,-403.085,0,0
206545.225,557.471,-413.158,0,0
207846.85,582.012,-408.647,0,0
209148.475,618.954,-420.465,0,0
210450.1,651.633,-444.397,0,0
211751.725,678.841,-476.132,0,0
213053.35,701.671,-512.647,0,0
214354.975,713.77,-557.249,0,0
215656.6,719.375,-600.221,0,0
216958.225,716.656,-644.369,0,0
218259.85,707.582,-686.568,0,0
219561,691.353,-725.048,0,0
220863,674.994,-762.293,0,0
222165,647.061,-805.404,0,0
223466,600.014,-832.938,0,0
224768,559.539,-837.482,0,0
226070,534.888,-837.011,0,0
227371,517.932,-845.988,0,0
228673,491.059,-856.816,0,0
229974,465.736,-863.396,0,0
231276,436.708,-867.843,0,0
232578,409.737,-866.304,0,0
233879,385.369,-863.036,0,0
235180.95,362.747,-859.964,0,0
236482.575,338.067,-855.811,0,0
237784.2,313.45,-847.82,0,0
239085.825,290.547,-835.338,0,0
240387.45,271.309,-820.235,0,0
241689.075,254.456,-802.425,0,0
242990.7,245.285,-783.136,0,0
244292.325,239.181,-770.098,0,0
245593.95,231.481,-757.005,0,0
246895.575,225.97,-743.751,0,0
248197.2,221.461,-730.74,0,0
249498.825,221.095,-719.162,0,0
250800,219.738,-712.009,0,0
252102,215.141,-705.905,0,0
253404,208.027,-697.269,0,0
254705,201.97,-683.709,0,0
256007,200.711,-667.495,0,0
257309,205.996,-652.876,0,0
258610,214.056,-641.311,0,0
259912,226.462,-632.604,0,0
261213,244.207,-633.745,0,0
262515,253.341,-647.533,0,0
263817,250.74,-661.458,0,0
265118,241.808,-670.958,0,0
266420,228.192,-676.18,0,0
267721.55,212.995,-673.127,0,0
269023.175,201.728,-664.779,0,0
270324.8,194.999,-654.56,0,0
271626.425,192.158,-644.894,0,0
272928.05,189.943,-636.571,0,0
274229.675,189.745,-627.098,0,0
275531.3,192.425,-618.071,0,0
276832.925,199.077,-611.627,0,0
278134.55,206.903,-609.924,0,0
279436.175,213.823,-613.868,0,0
280737.8,215.321,-621.65,0,0
282039.425,211.21,-628.532,0,0
283341,204.038,-632.095,0,0
284643,195.831,-632.462,0,0
285944,188.587,-629.879,0,0
287246,182.888,-625.693,0,0
288548,179.109,-620.898,0,0
289849,177.682,-617.015,0,0
291151,175.628,-615.492,0,0
292452,171.363,-613.588,0,0
293754,167.426,-608.951,0,0
295056,166.911,-603.178,0,0
296357,168.911,-601.036,0,0
297659,169.089,-601.958,0,0
298960.525,167.131,-603.511,0,0
300262.15,163.146,-604.926,0,0
301563.775,157.486,-605.233,0,0
302865.4,151.211,-603.446,0,0
304167.025,145.47,-600.363,0,0
305468.65,140.487,-596.138,0,0
306770.275,136.474,-591.45,0,0
308071.9,133.611,-586.495,0,0
309373.525,132.084,-582.185,0,0
310675.15,130.706,-579.632,0,0
311976.775,127.599,-577.903,0,0
313278.4,122.968,-574.733,0,0
314580,118.842,-569.293,0,0
315882,116.806,-562.897,0,0
317183,116.755,-557.548,0,0
318485,117.198,-553.378,0,0
319787,117.372,-550.402,0,0
321088,117.359,-547.022,0,0
322390,118.901,-544.462,0,0
323691,120.355,-544.351,0,0
324993,119.615,-545.782,0,0
326295,116.606,-547.02,0,0
327596,112.176,-546.957,0,0
328898,107.343,-545.206,0,0
330200,103.191,-542.774,0,0
331501.125,98.8538,-540.005,0,0
332802.75,94.3512,-536.479,0,0
334104.375,89.9215,-532.324,0,0
335406.0,85.953,-527.116,0,0
336707.625,82.8222,-521.033,0,0
338009.25,80.9131,-514.966,0,0
339310.875,79.1625,-508.95,0,0
340612.5,78.4741,-501.982,0,0
341914.125,80.0002,-495.393,0,0
343215.75,82.8609,-490.945,0,0
344517.375,85.1976,-488.709,0,0
345819.0,85.9854,-487.399,0,0
347121,85.2359,-485.865,0,0
348422,83.8507,-483.111,0,0
349724,83.0686,-479.13,0,0
351025,84.1156,-475.137,0,0
352327,85.7315,-473.024,0,0
353629,86.2207,-472.242,0,0
354930,85.266,-471.15,0,0
356232,83.7449,-469.361,0,0
357534,81.9996,-466.481,0,0
358835,81.3801,-462.927,0,0
360137,81.4824,-460.022,0,0
361438,81.0714,-457.678,0,0
362740.1,80.3153,-454.571,0,0
364041.725,80.9339,-450.9,0,0
365343.35,82.6636,-448.589,0,0
366644.975,83.5861,-448.131,0,0
367946.6,82.3467,-448.057,0,0
369248.225,79.7244,-445.645,0,0
370549.85,79.3102,-441.51,0,0
371851.475,80.6051,-439.141,0,0
373153.1,80.7508,-438.66,0,0
374454.725,78.9442,-437.275,0,0
375756.35,77.2662,-434.537,0,0
377057.975,76.4126,-431.066,0,0
378359.6,76.536,-427.455,0,0
379661,77.9473,-424.707,0,0
380963,78.6348,-423.549,0,0
382264,78.4634,-422.226,0,0
383566,78.1128,-420.985,0,0
384868,76.8592,-419.603,0,0
386169,75.4127,-417.458,0,0
387471,73.8179,-414.643,0,0
388773,72.7211,-410.82,0,0
390074,72.5803,-406.425,0,0
391376,73.9105,-402.137,0,0
392677,76.2031,-399.096,0,0
393979,78.3627,-396.992,0,0
395280.7,80.5842,-395.529,0,0
396582.325,82.628,-395.02,0,0
397883.95,83.8609,-395.259,0,0
399185.575,84.2608,-395.792,0,0
400006.6,83.9978,-396.245,0,0