File: Accelerated corrosion test data/2025-10-23_18-00-04/sample_7.csv
Frequency (Hz),Impedance (ohms),Phase (Radians),Temperature (C),Humidity (%)
10000.0,272.22,-12104.1,0,0
11301.625,246.023,-10707.5,0,0
12603.25,255.433,-9658.33,0,0
13904.875,207.385,-8761.73,0,0
15206.5,194.127,-8022.38,0,0
16508.125,170.268,-7380.96,0,0
17809.75,167.461,-6824.68,0,0
19111.375,185.11,-6385.13,0,0
20413.0,168.445,-5983.25,0,0
21714.625,156.261,-5647.92,0,0
23016.25,128.98,-5324.11,0,0
24317.875,121.435,-5030.85,0,0
25619.5,117.212,-4766.6,0,0
26921.1,120.358,-4521.23,0,0
28222.7,178.617,-4297.11,0,0
29524.4,139.809,-4184.42,0,0
30826,130.912,-3994.71,0,0
32127.6,117.539,-3846.03,0,0
33429.2,100.777,-3695.75,0,0
34730.9,91.0294,-3550.14,0,0
36032.5,87.539,-3415.99,0,0
37334.1,85.2085,-3291.86,0,0
38635.7,85.7661,-3174.39,0,0
39937.4,99.5462,-3074.8,0,0
41239,86.4823,-2988.69,0,0
42540.6,79.0498,-2892.18,0,0
43842.225,78.2283,-2803.32,0,0
45143.85,79.9489,-2725.12,0,0
46445.475,76.8849,-2652.11,0,0
47747.1,69.8559,-2576.37,0,0
49048.725,67.3329,-2505.84,0,0
50350.35,65.2144,-2438.76,0,0
51651.975,63.9274,-2375.01,0,0
52953.6,63.218,-2314.58,0,0
54255.225,61.6559,-2257.77,0,0
55556.85,60.2749,-2203.02,0,0
56858.475,59.41,-2150.54,0,0
58160.1,58.5405,-2100.12,0,0
59461.7,58.6716,-2052.51,0,0
60763.3,58.2354,-2008.69,0,0
62065,56.121,-1965.24,0,0
63366.6,54.9911,-1922.36,0,0
64668.2,54.1746,-1881.75,0,0
65969.8,54.3608,-1843.22,0,0
67271.5,52.5094,-1806.27,0,0
68573.1,51.3385,-1769.63,0,0
69874.7,50.8109,-1734.31,0,0
71176.3,50.5787,-1700.85,0,0
72478,49.5082,-1668.44,0,0
73779.6,48.656,-1636.56,0,0
75081.2,48.09,-1605.77,0,0
76382.825,47.5972,-1576,0,0
77684.45,47.3629,-1547.09,0,0
78986.075,47.0823,-1519.17,0,0
80287.7,46.8764,-1492.11,0,0
81589.325,46.4494,-1465.89,0,0
82890.95,46.2998,-1440.12,0,0
84192.575,46.2309,-1415.06,0,0
85494.2,46.3324,-1391.09,0,0
86795.825,46.3429,-1367.64,0,0
88097.45,46.4936,-1345.09,0,0
89399.075,45.906,-1322.68,0,0
90700.7,45.9425,-1300.36,0,0
92002.3,46.254,-1278.53,0,0
93303.9,46.9713,-1256.74,0,0
94605.6,50.2802,-1237.88,0,0
95907.2,48.8915,-1220.16,0,0
97208.8,48.4853,-1200.23,0,0
98510.4,49.0726,-1180.91,0,0
99812.1,48.4743,-1162.17,0,0
101114,50.1744,-1143,0,0
102415,52.1346,-1124.43,0,0
103717,54.7254,-1108.03,0,0
105019,55.5932,-1093.28,0,0
106320.175,55.1186,-1077.25,0,0
107621.8,55.6391,-1060.71,0,0
108923.425,56.8087,-1044.24,0,0
110225.05,57.4107,-1027.23,0,0
111526.675,60.6365,-1010.32,0,0
112828.3,65.2834,-993.846,0,0
114129.925,70.8521,-979.35,0,0
115431.55,77.8449,-966.556,0,0
116733.175,86.8868,-958.821,0,0
118034.8,91.0582,-954.405,0,0
119336.425,93.2703,-954.125,0,0
120638.05,85.5597,-953.618,0,0
121939.675,74.2861,-943.214,0,0
123241,67.2967,-930.193,0,0
124543,62.0161,-916.071,0,0
125845,57.5247,-901.952,0,0
127146,53.7354,-886.672,0,0
128448,52.3786,-871.546,0,0
129749,50.9093,-857.296,0,0
131051,49.1806,-842.727,0,0
132353,48.3592,-827.391,0,0
133654,48.8991,-811.588,0,0
134956,52.2183,-796.994,0,0
136258,56.6517,-784.76,0,0
137559,56.0179,-777.279,0,0
138860.775,53.4369,-764.444,0,0
140162.4,53.3485,-750.34,0,0
141464.025,52.9922,-736.654,0,0
142765.65,54.5103,-721.691,0,0
144067.275,57.4846,-708.54,0,0
145368.9,58.9377,-696.387,0,0
146670.525,60.5091,-683.311,0,0
147972.15,61.7491,-671.239,0,0
149273.775,61.5084,-658.18,0,0
150575.4,61.3439,-642.633,0,0
151877.025,63.0959,-625.063,0,0
153178.65,66.8366,-607.198,0,0
154480,72.2157,-588.936,0,0
155782,80.0123,-570.168,0,0
157084,90.8051,-552.488,0,0
158385,104.163,-538.481,0,0
159687,113.956,-529.37,0,0
160988,117.338,-515.823,0,0
162290,124.27,-492.565,0,0
163592,140.074,-467.199,0,0
164893,162.049,-445.436,0,0
166195,189.044,-419.249,0,0
167497,233.004,-396.111,0,0
168798,293.941,-389.067,0,0
170100,357.672,-410.098,0,0
171401.375,412.015,-458.931,0,0
172703.0,442.73,-532.423,0,0
174004.625,419.215,-615.456,0,0
175306.25,359.35,-640.402,0,0
176607.875,331.467,-630.219,0,0
177909.5,333.812,-625.447,0,0
179211.125,337.115,-661.3,0,0
180512.75,309.547,-686.914,0,0
181814.375,270.71,-701.933,0,0
183116.0,220.715,-696.893,0,0
184417.625,190.369,-672.961,0,0
185719.25,168.791,-650.288,0,0
187021,155.139,-622.198,0,0
188322,151.131,-599.352,0,0
189624,142.375,-581.404,0,0
190926,135.221,-557.126,0,0
192227,134.684,-532.311,0,0
193529,137.059,-506.294,0,0
194831,144.213,-482.333,0,0
196132,154.963,-461.934,0,0
197434,166.22,-443.784,0,0
198735,175.626,-427.709,0,0
200037,185.042,-408.254,0,0
201339,198.495,-386.255,0,0
202640.35,217.81,-362.812,0,0
203941.975,243.956,-341.566,0,0
205243.6,277.469,-322.614,0,0
206545.225,318.644,-317.901,0,0
207846.85,349.572,-318.034,0,0
209148.475,387.115,-310.512,0,0
210450.1,445.933,-314.485,0,0
211751.725,500.543,-357.123,0,0
213053.35,524.3,-408.513,0,0
214354.975,537.369,-454.241,0,0
215656.6,538.577,-499.621,0,0
216958.225,535.613,-544.572,0,0
218259.85,515.939,-590.503,0,0
219561,473.578,-620.953,0,0
220863,435.287,-621.731,0,0
222165,414.491,-610.716,0,0
223466,407.233,-603.298,0,0
224768,401.756,-599.351,0,0
226070,403.749,-591.728,0,0
227371,414.066,-593.022,0,0
228673,426.513,-605.625,0,0
229974,430.651,-626.29,0,0
231276,428.002,-652.288,0,0
232578,418.711,-677.957,0,0
233879,395.421,-709.697,0,0
235180.95,354.639,-723.724,0,0
236482.575,318.391,-719.339,0,0
237784.2,286.937,-707.372,0,0
239085.825,269.659,-683.745,0,0
240387.45,268.195,-670.972,0,0
241689.075,256.38,-669.38,0,0
242990.7,239.138,-655.236,0,0
244292.325,233.466,-634.709,0,0
245593.95,237.942,-624.909,0,0
246895.575,233.499,-619.477,0,0
248197.2,228.511,-609.322,0,0
249498.825,226.738,-595.255,0,0
250800,231.109,-581.172,0,0
252102,240.685,-570.254,0,0
253404,255.257,-566.963,0,0
254705,266.33,-573.1,0,0
256007,269.758,-583.081,0,0
257309,265.708,-590.65,0,0
258610,260.275,-591.896,0,0
259912,256.988,-593.07,0,0
261213,251.613,-591.515,0,0
262515,249.914,-585.971,0,0
263817,255.204,-583.426,0,0
265118,259.379,-587.976,0,0
266420,259.763,-593.019,0,0
267721.55,258.648,-601.283,0,0
269023.175,250.55,-606.693,0,0
270324.8,244.316,-604.286,0,0
271626.425,248.85,-602.542,0,0
272928.05,257.557,-618.611,0,0
274229.675,246.092,-644.005,0,0
275531.3,216.883,-660.992,0,0
276832.925,180.272,-657.733,0,0
278134.55,153.72,-637.667,0,0
279436.175,141.446,-614.023,0,0
280737.8,137.566,-593.922,0,0
282039.425,136.448,-580.393,0,0
283341,133.074,-566.041,0,0
284643,134.956,-549.045,0,0
285944,142.411,-536.724,0,0
287246,149.605,-530.434,0,0
288548,151.997,-526.286,0,0
289849,152.845,-519.063,0,0
291151,156.626,-508.879,0,0
292452,163.491,-501.162,0,0
293754,171.149,-494.208,0,0
295056,180.343,-488.256,0,0
296357,191.62,-484.11,0,0
297659,205.034,-481.967,0,0
298960.525,219.881,-483.826,0,0
300262.15,236.801,-489.224,0,0
301563.775,255.555,-502.374,0,0
302865.4,269.593,-528.791,0,0
304167.025,266.842,-560.697,0,0
305468.65,252.114,-586.017,0,0
306770.275,229.871,-603.014,0,0
308071.9,206.402,-610.694,0,0
309373.525,183.27,-610.683,0,0
310675.15,165.718,-604.212,0,0
311976.775,152.744,-597.721,0,0
313278.4,140.778,-591.058,0,0
314580,130.376,-582.172,0,0
315882,123.312,-572.171,0,0
317183,119.22,-563.399,0,0
318485,116.245,-555.782,0,0
319787,114.248,-549.239,0,0
321088,112.751,-543.913,0,0
322390,111.109,-539.336,0,0
323691,109.453,-535.385,0,0
324993,107.622,-531.444,0,0
326295,106.583,-527.792,0,0
327596,105.505,-525.584,0,0
328898,103.287,-524.153,0,0
330200,100.155,-522.489,0,0
331501.125,96.3884,-520.782,0,0
332802.75,91.5513,-518.628,0,0
334104.375,85.9772,-515.054,0,0
335406.0,80.9451,-510.352,0,0
336707.625,76.3091,-504.806,0,0
338009.25,72.3997,-498.465,0,0
339310.875,69.3052,-492.033,0,0
340612.5,66.7457,-485.343,0,0
341914.125,64.9441,-478.267,0,0
343215.75,64.2174,-471.227,0,0
344517.375,64.6407,-464.611,0,0
345819.0,65.7469,-459.277,0,0
347121,66.3452,-455.384,0,0
348422,65.5443,-451.53,0,0
349724,64.3422,-446.473,0,0
351025,63.6448,-440.743,0,0
352327,64.0783,-434.235,0,0
353629,65.908,-428.452,0,0
354930,68.4592,-423.812,0,0
356232,70.9132,-420.911,0,0
357534,71.4648,-418.993,0,0
358835,70.3037,-415.761,0,0
360137,69.5992,-410.499,0,0
361438,70.3788,-404.528,0,0
362740.1,72.4957,-398.951,0,0
364041.725,75.286,-393.858,0,0
365343.35,79.0246,-389.561,0,0
366644.975,82.7325,-386.812,0,0
367946.6,86.1389,-384.497,0,0
369248.225,89.3618,-382.95,0,0
370549.85,91.8376,-382.674,0,0
371851.475,92.0072,-382.194,0,0
373153.1,91.8491,-379.504,0,0
374454.725,93.1271,-376.11,0,0
375756.35,95.2119,-373.522,0,0
377057.975,96.5976,-371.684,0,0
378359.6,97.5153,-368.891,0,0
379661,99.348,-365.662,0,0
380963,101.392,-362.854,0,0
382264,103.732,-359.854,0,0
383566,106.588,-357.22,0,0
384868,109.458,-354.948,0,0
386169,112.229,-352.85,0,0
387471,114.564,-350.759,0,0
388773,117.364,-346.959,0,0
390074,122.591,-343.772,0,0
391376,128.312,-342.241,0,0
392677,133.597,-341.948,0,0
393979,137.991,-341.764,0,0
395280.7,142.788,-340.345,0,0
396582.325,149.728,-338.794,0,0
397883.95,159.565,-338.729,0,0
399185.575,172.123,-343.247,0,0
400006.6,179.529,-349.982,0,0