File: Accelerated corrosion test data/2025-10-23_18-00-04/sample_6.csv
Frequency (Hz),Impedance (ohms),Phase (Radians),Temperature (C),Humidity (%)
10000.0,4155.16,-6667.53,0,0
11301.625,3527.89,-6263.23,0,0
12603.25,3029.82,-5880.02,0,0
13904.875,2630.4,-5533,0,0
15206.5,2303.58,-5210.87,0,0
16508.125,2034.52,-4917.49,0,0
17809.75,1810.88,-4650.52,0,0
19111.375,1623.25,-4406.39,0,0
20413.0,1463.5,-4185.82,0,0
21714.625,1326.81,-3982.24,0,0
23016.25,1210.11,-3793.1,0,0
24317.875,1110.86,-3626.66,0,0
25619.5,1021.48,-3470,0,0
26921.1,943.83,-3323.94,0,0
28222.7,875.869,-3192.12,0,0
29524.4,812.637,-3065.12,0,0
30826,764.724,-2949.36,0,0
32127.6,714.296,-2843.46,0,0
33429.2,673.793,-2746.19,0,0
34730.9,629.306,-2653.64,0,0
36032.5,591.515,-2565.31,0,0
37334.1,557.801,-2479.33,0,0
38635.7,528.947,-2398.42,0,0
39937.4,505.75,-2322.61,0,0
41239,484.123,-2255.24,0,0
42540.6,460.455,-2192.23,0,0
43842.225,439.549,-2125.36,0,0
45143.85,424.883,-2065.49,0,0
46445.475,412.523,-2011.83,0,0
47747.1,397.476,-1962.76,0,0
49048.725,383.263,-1917.04,0,0
50350.35,366.237,-1874.58,0,0
51651.975,347.325,-1829.19,0,0
52953.6,332.874,-1782.83,0,0
54255.225,318.537,-1739.67,0,0
55556.85,308.582,-1697.05,0,0
56858.475,298.885,-1654.54,0,0
58160.1,296.187,-1617.94,0,0
59461.7,288.592,-1589.16,0,0
60763.3,276.186,-1559.33,0,0
62065,260.745,-1524.84,0,0
63366.6,256.177,-1486.74,0,0
64668.2,250.066,-1460.22,0,0
65969.8,242.252,-1429.01,0,0
67271.5,236.603,-1400.98,0,0
68573.1,230.266,-1374.13,0,0
69874.7,224.534,-1348.48,0,0
71176.3,217.61,-1323.94,0,0
72478,210.818,-1298.74,0,0
73779.6,204.643,-1274.56,0,0
75081.2,198.825,-1250.89,0,0
76382.825,192.618,-1227.92,0,0
77684.45,186.455,-1204.81,0,0
78986.075,180.714,-1181.7,0,0
80287.7,175.357,-1158.65,0,0
81589.325,171.047,-1135.38,0,0
82890.95,167.591,-1113.16,0,0
84192.575,164.414,-1090.86,0,0
85494.2,163.016,-1068.74,0,0
86795.825,162.473,-1048.71,0,0
88097.45,161.901,-1029.53,0,0
89399.075,162.516,-1010.8,0,0
90700.7,163.21,-995.895,0,0
92002.3,160.158,-980.421,0,0
93303.9,158.374,-964.32,0,0
94605.6,157.393,-947.501,0,0
95907.2,157.056,-931.96,0,0
97208.8,156.064,-918.704,0,0
98510.4,153.671,-904.034,0,0
99812.1,153.28,-889.109,0,0
101114,153.024,-876.397,0,0
102415,151.039,-864.289,0,0
103717,148.723,-852.981,0,0
105019,144.056,-842.282,0,0
106320.175,135.549,-827.765,0,0
107621.8,130.948,-806.637,0,0
108923.425,131.825,-786.631,0,0
110225.05,134.94,-769.479,0,0
111526.675,140.299,-753.376,0,0
112828.3,147.323,-743.105,0,0
114129.925,149.313,-735.242,0,0
115431.55,150.544,-725.435,0,0
116733.175,153.354,-719.786,0,0
118034.8,146.829,-714.711,0,0
119336.425,139.772,-700.837,0,0
120638.05,139.104,-684.144,0,0
121939.675,142.515,-672.361,0,0
123241,141.938,-662.803,0,0
124543,141.187,-651.974,0,0
125845,139.533,-641.155,0,0
127146,137.5,-628.613,0,0
128448,137.058,-613.819,0,0
129749,139.715,-600.365,0,0
131051,141.953,-588.445,0,0
132353,144.415,-576.376,0,0
133654,147.482,-565.014,0,0
134956,150.592,-554.13,0,0
136258,154.275,-543.83,0,0
137559,157.878,-534.939,0,0
138860.775,160.317,-526.648,0,0
140162.4,161.742,-518.001,0,0
141464.025,163.631,-508.613,0,0
142765.65,164.608,-500.301,0,0
144067.275,165.068,-489.443,0,0
145368.9,168.217,-479.237,0,0
146670.525,169.867,-470.788,0,0
147972.15,169.662,-461.548,0,0
149273.775,169.304,-449.542,0,0
150575.4,170.726,-436.132,0,0
151877.025,173.654,-421.902,0,0
153178.65,180.274,-408.607,0,0
154480,185.283,-398.46,0,0
155782,189.548,-385.549,0,0
157084,197.64,-374.302,0,0
158385,203.512,-365.991,0,0
159687,207.575,-355.674,0,0
160988,211.919,-344.793,0,0
162290,216.914,-332.755,0,0
163592,223.201,-320.711,0,0
164893,228.71,-309.561,0,0
166195,233.018,-296.49,0,0
167497,238.783,-280.859,0,0
168798,247.066,-264.688,0,0
170100,256.284,-249.101,0,0
171401.375,265.953,-232.782,0,0
172703.0,276.055,-214.869,0,0
174004.625,287.726,-194.846,0,0
175306.25,302.556,-172.426,0,0
176607.875,321.142,-148.724,0,0
177909.5,344.511,-124.146,0,0
179211.125,373.121,-99.6619,0,0
180512.75,407.715,-77.5916,0,0
181814.375,445.478,-58.3187,0,0
183116.0,486.666,-40.3412,0,0
184417.625,533.625,-21.7798,0,0
185719.25,589.294,-4.78988,0,0
187021,656.724,8.43412,0,0
188322,738.58,11.6571,0,0
189624,833.773,-3.95828,0,0
190926,934.044,-46.2981,0,0
192227,1029.48,-117.175,0,0
193529,1109.84,-215.638,0,0
194831,1165.68,-336.254,0,0
196132,1189.36,-470.208,0,0
197434,1176.98,-604.773,0,0
198735,1132.88,-726.165,0,0
200037,1067.26,-827.218,0,0
201339,987.243,-906.953,0,0
202640.35,899.192,-963.017,0,0
203941.975,812.116,-996.025,0,0
205243.6,731.572,-1012.08,0,0
206545.225,658.847,-1015.69,0,0
207846.85,594.473,-1010.43,0,0
209148.475,538.676,-999.541,0,0
210450.1,489.79,-985.942,0,0
211751.725,445.159,-970.815,0,0
213053.35,405.165,-951.593,0,0
214354.975,370.73,-930.845,0,0
215656.6,340.476,-908.587,0,0
216958.225,315.505,-886.261,0,0
218259.85,293.698,-864.513,0,0
219561,274.627,-843.026,0,0
220863,258.246,-821.672,0,0
222165,244.269,-800.437,0,0
223466,232.801,-779.371,0,0
224768,223.874,-758.478,0,0
226070,218.137,-738.749,0,0
227371,213.885,-721.062,0,0
228673,210.208,-704.734,0,0
229974,207.11,-688.601,0,0
231276,205.391,-672.281,0,0
232578,205.38,-656.266,0,0
233879,207.221,-640.802,0,0
235180.95,211.029,-626.099,0,0
236482.575,216.884,-612.833,0,0
237784.2,224.573,-601.067,0,0
239085.825,234.189,-591.367,0,0
240387.45,245.266,-584.335,0,0
241689.075,257.292,-580.328,0,0
242990.7,269.706,-579.566,0,0
244292.325,282.143,-582.65,0,0
245593.95,292.531,-590.598,0,0
246895.575,298.25,-600.627,0,0
248197.2,300.996,-610.645,0,0
249498.825,301.629,-619.89,0,0
250800,303.209,-629.139,0,0
252102,302.772,-642.601,0,0
253404,297.604,-657.179,0,0
254705,287.537,-671.301,0,0
256007,272.812,-682.123,0,0
257309,256.132,-688.533,0,0
258610,239.405,-690.893,0,0
259912,223.663,-690.377,0,0
261213,208.846,-687.73,0,0
262515,195.53,-683.362,0,0
263817,183.595,-677.858,0,0
265118,173.008,-671.704,0,0
266420,163.54,-665.195,0,0
267721.55,155.094,-658.435,0,0
269023.175,147.457,-651.657,0,0
270324.8,140.651,-644.906,0,0
271626.425,134.189,-638.06,0,0
272928.05,128.439,-631.202,0,0
274229.675,123.155,-624.426,0,0
275531.3,118.284,-617.712,0,0
276832.925,113.806,-610.946,0,0
278134.55,109.753,-604.174,0,0
279436.175,106.182,-597.253,0,0
280737.8,103.548,-590.299,0,0
282039.425,101.641,-584.373,0,0
283341,99.3995,-578.994,0,0
284643,97.034,-573.481,0,0
285944,95.4758,-568.197,0,0
287246,94.1167,-563.746,0,0
288548,91.8699,-559.576,0,0
289849,89.614,-555.072,0,0
291151,87.4683,-550.507,0,0
292452,85.6548,-546.115,0,0
293754,83.5664,-542.079,0,0
295056,81.1116,-537.848,0,0
296357,78.8172,-532.97,0,0
297659,77.0303,-527.836,0,0
298960.525,76.1303,-523.02,0,0
300262.15,75.1002,-519.12,0,0
301563.775,73.7166,-515.282,0,0
302865.4,72.2229,-511.229,0,0
304167.025,70.92,-506.983,0,0
305468.65,69.9496,-503.022,0,0
306770.275,68.9408,-499.277,0,0
308071.9,67.6826,-495.62,0,0
309373.525,66.537,-491.806,0,0
310675.15,65.472,-488.163,0,0
311976.775,64.467,-484.501,0,0
313278.4,63.3567,-480.969,0,0
314580,62.331,-477.344,0,0
315882,61.3815,-473.699,0,0
317183,60.4072,-470.147,0,0
318485,59.5685,-466.621,0,0
319787,58.6907,-463.117,0,0
321088,57.9658,-459.633,0,0
322390,57.3051,-456.203,0,0
323691,56.6312,-452.895,0,0
324993,55.9643,-449.652,0,0
326295,55.2312,-446.396,0,0
327596,54.4765,-443.116,0,0
328898,53.832,-439.78,0,0
330200,53.2917,-436.436,0,0
331501.125,52.797,-433.113,0,0
332802.75,52.4184,-429.934,0,0
334104.375,52.0136,-426.781,0,0
335406.0,51.6335,-423.657,0,0
336707.625,51.3335,-420.573,0,0
338009.25,50.938,-417.611,0,0
339310.875,50.6462,-414.512,0,0
340612.5,50.3552,-411.466,0,0
341914.125,50.141,-408.399,0,0
343215.75,50.0776,-405.475,0,0
344517.375,49.9913,-402.634,0,0
345819.0,49.7655,-399.79,0,0
347121,49.6639,-396.892,0,0
348422,49.7313,-393.998,0,0
349724,49.8185,-391.201,0,0
351025,50.0369,-388.544,0,0
352327,50.2453,-385.998,0,0
353629,50.4131,-383.625,0,0
354930,50.5051,-381.292,0,0
356232,50.5264,-379.098,0,0
357534,50.428,-376.889,0,0
358835,50.2917,-374.594,0,0
360137,50.1341,-372.347,0,0
361438,49.9715,-370.007,0,0
362740.1,49.751,-367.649,0,0
364041.725,49.6103,-365.239,0,0
365343.35,49.5179,-362.861,0,0
366644.975,49.4605,-360.448,0,0
367946.6,49.4494,-358.101,0,0
369248.225,49.4047,-355.783,0,0
370549.85,49.3768,-353.433,0,0
371851.475,49.4812,-351.133,0,0
373153.1,49.6288,-348.99,0,0
374454.725,49.645,-347.075,0,0
375756.35,49.3772,-345.107,0,0
377057.975,49.0099,-342.903,0,0
378359.6,48.654,-340.587,0,0
379661,48.3979,-338.148,0,0
380963,48.1548,-335.619,0,0
382264,48.1296,-332.98,0,0
383566,48.3502,-330.538,0,0
384868,48.3606,-328.383,0,0
386169,48.2311,-326.002,0,0
387471,48.14,-323.568,0,0
388773,48.0907,-321.082,0,0
390074,48.101,-318.546,0,0
391376,48.1462,-316.01,0,0
392677,48.2665,-313.461,0,0
393979,48.3448,-310.901,0,0
395280.7,48.5139,-308.281,0,0
396582.325,48.6679,-305.666,0,0
397883.95,48.9067,-302.982,0,0
399185.575,49.1778,-300.309,0,0
400006.6,49.3422,-298.629,0,0