File: Accelerated corrosion test data/2025-10-23_18-00-04/sample_2.csv
Frequency (Hz),Impedance (ohms),Phase (Radians),Temperature (C),Humidity (%)
10000.0,235.081,-11467,0,0
11301.625,208.617,-10156.6,0,0
12603.25,187.649,-9118.58,0,0
13904.875,187.717,-8264.68,0,0
15206.5,170.453,-7575.41,0,0
16508.125,145.776,-6981.05,0,0
17809.75,135.93,-6472.09,0,0
19111.375,130.695,-6030.58,0,0
20413.0,119.906,-5645.82,0,0
21714.625,129.962,-5315.67,0,0
23016.25,114.228,-5019.07,0,0
24317.875,104.788,-4752.21,0,0
25619.5,99.1361,-4507.55,0,0
26921.1,96.0012,-4288.92,0,0
28222.7,90.7525,-4088.71,0,0
29524.4,93.7251,-3904.45,0,0
30826,88.814,-3750.03,0,0
32127.6,82.9317,-3595.45,0,0
33429.2,80.4199,-3456.55,0,0
34730.9,76.2317,-3325.28,0,0
36032.5,73.6626,-3203.3,0,0
37334.1,71.3709,-3089.45,0,0
38635.7,69.1809,-2983.9,0,0
39937.4,67.3608,-2884.98,0,0
41239,65.8104,-2791.46,0,0
42540.6,64.9615,-2704.92,0,0
43842.225,63.4683,-2622.3,0,0
45143.85,62.1243,-2544.28,0,0
46445.475,61.7897,-2471.83,0,0
47747.1,60.7478,-2402.44,0,0
49048.725,60.7567,-2338.32,0,0
50350.35,58.1955,-2275.97,0,0
51651.975,56.6758,-2216.5,0,0
52953.6,55.2965,-2159.02,0,0
54255.225,54.5065,-2103.98,0,0
55556.85,54.1417,-2052,0,0
56858.475,54.0997,-2001.99,0,0
58160.1,54.1748,-1954.55,0,0
59461.7,54.7602,-1908.22,0,0
60763.3,56.7298,-1865.66,0,0
62065,59.0406,-1827.28,0,0
63366.6,55.564,-1790.48,0,0
64668.2,52.8634,-1752.27,0,0
65969.8,50.9187,-1712.8,0,0
67271.5,51.2536,-1675.42,0,0
68573.1,54.0042,-1641.35,0,0
69874.7,55.638,-1610.9,0,0
71176.3,52.4047,-1583.07,0,0
72478,47.8487,-1552.41,0,0
73779.6,45.3691,-1519.07,0,0
75081.2,45.2318,-1486.65,0,0
76382.825,47.027,-1456.13,0,0
77684.45,49.8687,-1427.67,0,0
78986.075,52.9968,-1403.66,0,0
80287.7,51.9064,-1382.03,0,0
81589.325,49.0965,-1356.78,0,0
82890.95,48.0827,-1330.95,0,0
84192.575,48.7473,-1306.19,0,0
85494.2,49.4078,-1282.66,0,0
86795.825,50.596,-1260.26,0,0
88097.45,51.1084,-1239.01,0,0
89399.075,51.3554,-1217.59,0,0
90700.7,51.5237,-1197.44,0,0
92002.3,52.8716,-1176.04,0,0
93303.9,54.8521,-1157.13,0,0
94605.6,55.4007,-1140.64,0,0
95907.2,54.4627,-1120.89,0,0
97208.8,57.896,-1103.46,0,0
98510.4,57.3158,-1089.8,0,0
99812.1,53.6068,-1074.66,0,0
101114,50.6472,-1057.5,0,0
102415,46.9337,-1037.47,0,0
103717,46.0905,-1016.22,0,0
105019,49.5533,-995.872,0,0
106320.175,53.9907,-978.415,0,0
107621.8,57.9689,-966.517,0,0
108923.425,56.3274,-954.849,0,0
110225.05,53.0732,-939.499,0,0
111526.675,51.7471,-921.529,0,0
112828.3,52.1568,-904.058,0,0
114129.925,53.8241,-886.888,0,0
115431.55,56.5141,-870.267,0,0
116733.175,60.0381,-854.698,0,0
118034.8,63.9671,-840.392,0,0
119336.425,68.2027,-828.277,0,0
120638.05,70.6227,-818.062,0,0
121939.675,70.2523,-807.352,0,0
123241,69.1492,-794.674,0,0
124543,68.4743,-781.018,0,0
125845,68.172,-766.142,0,0
127146,69.5753,-750.56,0,0
128448,72.3261,-736.258,0,0
129749,75.1711,-722.761,0,0
131051,78.0366,-710.02,0,0
132353,79.4231,-697.738,0,0
133654,80.9282,-684.07,0,0
134956,82.0211,-670.352,0,0
136258,84.1966,-655.05,0,0
137559,87.3065,-639.845,0,0
138860.775,90.7719,-624.899,0,0
140162.4,94.0812,-608.863,0,0
141464.025,99.8359,-590.571,0,0
142765.65,109.157,-573.453,0,0
144067.275,118.967,-557.903,0,0
145368.9,130.228,-543.249,0,0
146670.525,142.43,-529.055,0,0
147972.15,156.801,-514.775,0,0
149273.775,176.536,-500.455,0,0
150575.4,204.51,-495.38,0,0
151877.025,227.29,-505.379,0,0
153178.65,237.551,-520.808,0,0
154480,236.449,-531.75,0,0
155782,233.263,-534.819,0,0
157084,227.538,-535.784,0,0
158385,224.824,-530.165,0,0
159687,223.702,-524.859,0,0
160988,223.429,-517.901,0,0
162290,230.387,-514.385,0,0
163592,226.924,-519.45,0,0
164893,213.63,-516.468,0,0
166195,201.437,-503.202,0,0
167497,194.726,-484.944,0,0
168798,190.972,-464.421,0,0
170100,191.7,-441.14,0,0
171401.375,196.735,-418.691,0,0
172703.0,204.55,-395.194,0,0
174004.625,216.955,-371.18,0,0
175306.25,235.515,-348.074,0,0
176607.875,259.314,-329.1,0,0
177909.5,286.485,-317.938,0,0
179211.125,309.548,-316.84,0,0
180512.75,320.031,-316.922,0,0
181814.375,325.766,-299.8,0,0
183116.0,342.9,-281.181,0,0
184417.625,365.717,-258.456,0,0
185719.25,398.327,-239.49,0,0
187021,436.489,-225.037,0,0
188322,479.523,-218.172,0,0
189624,517.726,-217.32,0,0
190926,562.069,-209.908,0,0
192227,621.228,-207.741,0,0
193529,692.785,-222.434,0,0
194831,763.538,-265.654,0,0
196132,816.753,-326.335,0,0
197434,857.659,-389.948,0,0
198735,892.044,-469.408,0,0
200037,903.25,-554.713,0,0
201339,895.67,-643.166,0,0
202640.35,861.062,-721.056,0,0
203941.975,818.303,-784.335,0,0
205243.6,767.066,-839.217,0,0
206545.225,700.44,-871.934,0,0
207846.85,643.203,-882.516,0,0
209148.475,604.889,-886.184,0,0
210450.1,566.138,-899.28,0,0
211751.725,518.088,-904.947,0,0
213053.35,475.996,-894.871,0,0
214354.975,442.259,-881.253,0,0
215656.6,414.79,-865.915,0,0
216958.225,393.359,-847.611,0,0
218259.85,378.616,-830.968,0,0
219561,368.103,-815.703,0,0
220863,361.179,-803.204,0,0
222165,357.39,-792.7,0,0
223466,354.988,-786.954,0,0
224768,352.377,-782.924,0,0
226070,349.321,-780.52,0,0
227371,348.31,-779.73,0,0
228673,347.771,-784.339,0,0
229974,341.593,-794.01,0,0
231276,329.847,-801.433,0,0
232578,315.656,-807.863,0,0
233879,297.85,-810.733,0,0
235180.95,280.635,-809.88,0,0
236482.575,263.881,-807.52,0,0
237784.2,246.46,-802.848,0,0
239085.825,231.001,-795.391,0,0
240387.45,216.675,-786.975,0,0
241689.075,204.12,-777.067,0,0
242990.7,194.011,-766.591,0,0
244292.325,186.241,-757.56,0,0
245593.95,178.092,-751.199,0,0
246895.575,166.352,-745.346,0,0
248197.2,153.129,-735.412,0,0
249498.825,141.132,-722.576,0,0
250800,131.111,-706.937,0,0
252102,125.011,-689.731,0,0
253404,121.924,-673.502,0,0
254705,120.207,-657.774,0,0
256007,120.842,-641.481,0,0
257309,124.59,-626.888,0,0
258610,129.884,-613.847,0,0
259912,136.938,-602.54,0,0
261213,145.449,-593.853,0,0
262515,154.253,-587.983,0,0
263817,162.401,-584.607,0,0
265118,169.803,-583.07,0,0
266420,175.517,-583.142,0,0
267721.55,179.919,-583.731,0,0
269023.175,182.847,-585.032,0,0
270324.8,183.955,-585.196,0,0
271626.425,185.503,-582.792,0,0
272928.05,190.397,-580.085,0,0
274229.675,198.609,-579.161,0,0
275531.3,210.722,-585.096,0,0
276832.925,216.607,-601.225,0,0
278134.55,211.891,-617.083,0,0
279436.175,201.318,-628.6,0,0
280737.8,188.175,-634.839,0,0
282039.425,175.378,-637.771,0,0
283341,160.569,-637.724,0,0
284643,148.681,-632.4,0,0
285944,136.693,-628.425,0,0
287246,122.828,-618.58,0,0
288548,113.947,-601.451,0,0
289849,115.27,-582.346,0,0
291151,126.055,-568.184,0,0
292452,141.907,-566.001,0,0
293754,149.164,-574.861,0,0
295056,145.913,-580.046,0,0
296357,147.463,-578.384,0,0
297659,150.955,-588.133,0,0
298960.525,142.038,-596.797,0,0
300262.15,131.156,-598.268,0,0
301563.775,122.876,-595.372,0,0
302865.4,117.969,-592.333,0,0
304167.025,113.506,-591.878,0,0
305468.65,106.443,-591.817,0,0
306770.275,97.9514,-589.234,0,0
308071.9,90.2981,-584.653,0,0
309373.525,83.7142,-578.974,0,0
310675.15,78.2003,-572.958,0,0
311976.775,73.3869,-566.559,0,0
313278.4,69.463,-559.912,0,0
314580,66.2315,-553.353,0,0
315882,63.6711,-546.942,0,0
317183,61.3762,-540.5,0,0
318485,59.8268,-534.126,0,0
319787,58.7081,-528.159,0,0
321088,57.6488,-522.56,0,0
322390,56.7086,-516.73,0,0
323691,56.0089,-510.739,0,0
324993,55.9873,-504.052,0,0
326295,58.1637,-497.457,0,0
327596,61.5287,-493.372,0,0
328898,63.8959,-490.782,0,0
330200,65.9483,-488.887,0,0
331501.125,67.2503,-488.305,0,0
332802.75,66.7352,-488.461,0,0
334104.375,64.316,-487.587,0,0
335406.0,61.8687,-485.022,0,0
336707.625,59.7577,-481.911,0,0
338009.25,57.895,-478.326,0,0
339310.875,56.4015,-474.529,0,0
340612.5,55.0741,-470.374,0,0
341914.125,54.1672,-465.972,0,0
343215.75,53.735,-461.434,0,0
344517.375,53.7978,-456.88,0,0
345819.0,54.5013,-452.462,0,0
347121,55.5411,-448.416,0,0
348422,56.7662,-444.63,0,0
349724,58.5071,-441.222,0,0
351025,60.4283,-438.51,0,0
352327,61.8897,-436.477,0,0
353629,63.0238,-434.319,0,0
354930,64.2783,-432.235,0,0
356232,65.5247,-430.179,0,0
357534,67.2357,-428.265,0,0
358835,69.163,-427.188,0,0
360137,70.683,-426.924,0,0
361438,71.4384,-427.043,0,0
362740.1,71.5253,-427.086,0,0
364041.725,71.0307,-427.096,0,0
365343.35,70.1008,-426.552,0,0
366644.975,69.1781,-425.447,0,0
367946.6,68.6329,-424.054,0,0
369248.225,68.7668,-423.141,0,0
370549.85,68.0253,-422.961,0,0
371851.475,66.7436,-422.141,0,0
373153.1,65.8767,-421.2,0,0
374454.725,64.6644,-420.439,0,0
375756.35,63.1101,-419.553,0,0
377057.975,61.5157,-418.219,0,0
378359.6,59.9878,-417.278,0,0
379661,57.1955,-416.226,0,0
380963,54.5854,-412.723,0,0
382264,54.5186,-409.945,0,0
383566,53.3795,-408.742,0,0
384868,51.2657,-406.904,0,0
386169,49.1714,-404.327,0,0
387471,47.3574,-401.17,0,0
388773,46.0016,-397.617,0,0
390074,45.5011,-393.909,0,0
391376,45.743,-391.1,0,0
392677,45.2395,-389.35,0,0
393979,43.5859,-387.093,0,0
395280.7,41.7777,-383.608,0,0
396582.325,40.8796,-379.422,0,0
397883.95,40.7539,-375.194,0,0
399185.575,41.3067,-371.276,0,0
400006.6,41.8012,-369.024,0,0