File: Accelerated corrosion test data/2025-10-23_18-00-04/sample_8.csv
Frequency (Hz),Impedance (ohms),Phase (Radians),Temperature (C),Humidity (%)
10000.0,301.999,-10990.8,0,0
11301.625,267.901,-9739.62,0,0
12603.25,247.131,-8746.49,0,0
13904.875,219.224,-7943.53,0,0
15206.5,199.793,-7268.82,0,0
16508.125,184.35,-6701.2,0,0
17809.75,171.704,-6213.82,0,0
19111.375,164.274,-5790.35,0,0
20413.0,157.87,-5428.09,0,0
21714.625,146.152,-5107.7,0,0
23016.25,141.072,-4824.76,0,0
24317.875,129.294,-4566.84,0,0
25619.5,122.892,-4333.54,0,0
26921.1,118.397,-4122.26,0,0
28222.7,115.45,-3932.28,0,0
29524.4,111.725,-3759.43,0,0
30826,107.664,-3601.57,0,0
32127.6,103.83,-3452.89,0,0
33429.2,103.848,-3315.56,0,0
34730.9,105.606,-3191.02,0,0
36032.5,108.716,-3081.18,0,0
37334.1,104.637,-2982.16,0,0
38635.7,93.9484,-2884.61,0,0
39937.4,86.4143,-2787.27,0,0
41239,83.7659,-2696.48,0,0
42540.6,80.8881,-2611.34,0,0
43842.225,80.0124,-2534,0,0
45143.85,75.8221,-2459.27,0,0
46445.475,73.0759,-2388.03,0,0
47747.1,71.2616,-2320.54,0,0
49048.725,69.2602,-2256.8,0,0
50350.35,67.4519,-2195.8,0,0
51651.975,66.4047,-2137.58,0,0
52953.6,66.1231,-2082.79,0,0
54255.225,64.986,-2032.59,0,0
55556.85,62.0768,-1983.28,0,0
56858.475,60.0366,-1934.34,0,0
58160.1,59.2014,-1887.82,0,0
59461.7,58.3104,-1843.98,0,0
60763.3,57.1504,-1801.03,0,0
62065,56.6441,-1760.12,0,0
63366.6,57.4669,-1721.04,0,0
64668.2,57.0024,-1684.5,0,0
65969.8,56.3808,-1649.35,0,0
67271.5,54.7865,-1614.7,0,0
68573.1,53.5941,-1580.71,0,0
69874.7,53.5071,-1547.52,0,0
71176.3,53.5223,-1516.32,0,0
72478,53.1672,-1486.68,0,0
73779.6,52.3407,-1457.28,0,0
75081.2,51.6522,-1428.64,0,0
76382.825,51.4194,-1400.6,0,0
77684.45,50.8904,-1373.83,0,0
78986.075,50.2045,-1347.42,0,0
80287.7,49.7021,-1321.25,0,0
81589.325,49.9752,-1295.39,0,0
82890.95,50.8704,-1270.44,0,0
84192.575,52.1641,-1247.28,0,0
85494.2,51.2898,-1224.96,0,0
86795.825,51.456,-1201.31,0,0
88097.45,52.2034,-1178.72,0,0
89399.075,52.8276,-1155.82,0,0
90700.7,55.4691,-1132.9,0,0
92002.3,58.9615,-1113.59,0,0
93303.9,60.9822,-1093.61,0,0
94605.6,63.3263,-1075.17,0,0
95907.2,64.9142,-1055.77,0,0
97208.8,68.383,-1036.35,0,0
98510.4,73.6669,-1018.25,0,0
99812.1,78.2813,-1003.15,0,0
101114,83.6679,-989.462,0,0
102415,86.4258,-978.665,0,0
103717,87.011,-966.935,0,0
105019,85.5476,-955.131,0,0
106320.175,84.9249,-940.633,0,0
107621.8,84.7597,-927.264,0,0
108923.425,84.8118,-912.107,0,0
110225.05,86.5154,-898.978,0,0
111526.675,87.2765,-886.354,0,0
112828.3,87.9457,-874.448,0,0
114129.925,87.741,-862.489,0,0
115431.55,87.7618,-850.859,0,0
116733.175,86.0633,-838.488,0,0
118034.8,86.0517,-825.745,0,0
119336.425,85.6451,-813.66,0,0
120638.05,84.6642,-801.083,0,0
121939.675,84.5851,-788.738,0,0
123241,83.939,-776.9,0,0
124543,82.7275,-764.528,0,0
125845,81.2561,-751.552,0,0
127146,80.3425,-737.722,0,0
128448,80.0912,-723.791,0,0
129749,79.9351,-709.886,0,0
131051,81.2757,-695.331,0,0
132353,82.4437,-682.41,0,0
133654,82.8831,-669.163,0,0
134956,84.2187,-654.792,0,0
136258,86.4408,-642.121,0,0
137559,86.073,-629.237,0,0
138860.775,86.3523,-613.212,0,0
140162.4,88.6299,-597.536,0,0
141464.025,91.0357,-581.902,0,0
142765.65,93.8459,-564.55,0,0
144067.275,98.8059,-547.21,0,0
145368.9,105.361,-528.914,0,0
146670.525,114.438,-511.16,0,0
147972.15,123.521,-495.43,0,0
149273.775,134.763,-476.31,0,0
150575.4,154.358,-456.869,0,0
151877.025,181.077,-449.777,0,0
153178.65,199.065,-453.039,0,0
154480,209.903,-454.275,0,0
155782,224.956,-456.713,0,0
157084,221.571,-468.188,0,0
158385,221.111,-458.188,0,0
159687,227.061,-458.231,0,0
160988,218.575,-453.575,0,0
162290,225.317,-436.682,0,0
163592,235.267,-432.826,0,0
164893,241.511,-431.763,0,0
166195,239.712,-434.233,0,0
167497,227.957,-428.006,0,0
168798,218.724,-413.642,0,0
170100,214.112,-391.539,0,0
171401.375,214.259,-366.113,0,0
172703.0,223.197,-338.523,0,0
174004.625,235.784,-315.72,0,0
175306.25,245.73,-292.47,0,0
176607.875,262.38,-263.749,0,0
177909.5,280.898,-234.116,0,0
179211.125,313.626,-200.065,0,0
180512.75,355.896,-176.224,0,0
181814.375,404.235,-156.854,0,0
183116.0,461.652,-156.803,0,0
184417.625,499.472,-162.008,0,0
185719.25,549.942,-166.972,0,0
187021,595.917,-182.951,0,0
188322,635.902,-203.107,0,0
189624,669.271,-223.437,0,0
190926,708.889,-237.013,0,0
192227,747.66,-265.259,0,0
193529,793.85,-275.645,0,0
194831,869.926,-310.562,0,0
196132,946.224,-389.369,0,0
197434,988.373,-504.931,0,0
198735,981.751,-639.059,0,0
200037,915.905,-749.421,0,0
201339,840.114,-814.315,0,0
202640.35,746.298,-859.859,0,0
203941.975,668.756,-853.963,0,0
205243.6,608.759,-842.047,0,0
206545.225,566.843,-809.033,0,0
207846.85,554.576,-782.261,0,0
209148.475,549.296,-769.83,0,0
210450.1,549.279,-758.224,0,0
211751.725,557.648,-758.523,0,0
213053.35,563.29,-771.961,0,0
214354.975,561.163,-791.01,0,0
215656.6,553.559,-813.139,0,0
216958.225,536.677,-834.895,0,0
218259.85,515.934,-855.193,0,0
219561,486.399,-870.589,0,0
220863,453.365,-876.401,0,0
222165,425.055,-871.696,0,0
223466,404.897,-862.862,0,0
224768,392.596,-857.379,0,0
226070,382.397,-859.067,0,0
227371,366.396,-864.546,0,0
228673,347.82,-865.208,0,0
229974,330.045,-869.125,0,0
231276,305.48,-871.712,0,0
232578,278.421,-868.768,0,0
233879,249.554,-859.302,0,0
235180.95,224.285,-841.473,0,0
236482.575,206.546,-819.813,0,0
237784.2,194.815,-798.416,0,0
239085.825,189.193,-777.065,0,0
240387.45,188.81,-761.531,0,0
241689.075,187.637,-752.458,0,0
242990.7,181.938,-743.81,0,0
244292.325,175.603,-732.691,0,0
245593.95,171.399,-720.315,0,0
246895.575,170.573,-708.991,0,0
248197.2,168.712,-699.799,0,0
249498.825,166.976,-690.271,0,0
250800,166.287,-680.009,0,0
252102,168.626,-670.94,0,0
253404,171.709,-666.429,0,0
254705,170.493,-664.421,0,0
256007,165.342,-659.955,0,0
257309,160.455,-651.119,0,0
258610,159.059,-639.69,0,0
259912,162.129,-629.116,0,0
261213,166.269,-621.74,0,0
262515,169.403,-616.022,0,0
263817,172.312,-608.803,0,0
265118,176.769,-600.134,0,0
266420,186.568,-590.341,0,0
267721.55,203.493,-585.131,0,0
269023.175,222.795,-589.867,0,0
270324.8,240.507,-603.411,0,0
271626.425,250.885,-627.305,0,0
272928.05,249.628,-656.637,0,0
274229.675,230.539,-683.824,0,0
275531.3,202.579,-695.962,0,0
276832.925,176.027,-696.212,0,0
278134.55,154.208,-689.049,0,0
279436.175,137.326,-676.795,0,0
280737.8,127.679,-662.578,0,0
282039.425,123.66,-650.637,0,0
283341,121.42,-642.558,0,0
284643,118.898,-634.848,0,0
285944,119.12,-627.553,0,0
287246,122.394,-623.894,0,0
288548,123.632,-627.725,0,0
289849,116.509,-632.979,0,0
291151,105.383,-632.254,0,0
292452,95.0249,-628.206,0,0
293754,85.4998,-621.572,0,0
295056,77.9198,-612.709,0,0
296357,72.8922,-603.638,0,0
297659,68.9006,-595.004,0,0
298960.525,65.7242,-586.158,0,0
300262.15,63.8381,-577.058,0,0
301563.775,63.5844,-568.3,0,0
302865.4,64.6506,-560.699,0,0
304167.025,66.3336,-554.335,0,0
305468.65,68.4449,-549.306,0,0
306770.275,70.1486,-545.629,0,0
308071.9,71.7011,-542.744,0,0
309373.525,71.9027,-541.309,0,0
310675.15,70.8877,-538.929,0,0
311976.775,70.1335,-536.485,0,0
313278.4,68.6767,-534.179,0,0
314580,66.9631,-531.374,0,0
315882,65.0497,-528.194,0,0
317183,63.6176,-524.491,0,0
318485,62.3796,-520.94,0,0
319787,61.6542,-517.221,0,0
321088,61.2681,-514.241,0,0
322390,60.6783,-511.792,0,0
323691,59.3107,-509.879,0,0
324993,57.1384,-507.409,0,0
326295,54.8533,-504.09,0,0
327596,52.9529,-500.527,0,0
328898,51.2279,-496.91,0,0
330200,49.4869,-493.105,0,0
331501.125,47.9498,-489.043,0,0
332802.75,46.688,-484.594,0,0
334104.375,46.0467,-479.966,0,0
335406.0,46.2863,-475.779,0,0
336707.625,46.5572,-472.5,0,0
338009.25,46.402,-469.766,0,0
339310.875,45.6721,-466.991,0,0
340612.5,44.6657,-463.962,0,0
341914.125,43.5028,-460.462,0,0
343215.75,42.5284,-456.684,0,0
344517.375,41.8161,-452.672,0,0
345819.0,41.5415,-448.458,0,0
347121,41.6622,-444.355,0,0
348422,42.0272,-440.388,0,0
349724,42.6486,-436.531,0,0
351025,43.7456,-432.922,0,0
352327,44.9452,-429.854,0,0
353629,46.114,-427.137,0,0
354930,47.0515,-424.638,0,0
356232,47.9111,-422.418,0,0
357534,48.585,-420.337,0,0
358835,49.223,-418.178,0,0
360137,49.727,-416.147,0,0
361438,50.2078,-414.129,0,0
362740.1,50.6635,-412.269,0,0
364041.725,50.9124,-410.47,0,0
365343.35,51.109,-408.663,0,0
366644.975,51.1671,-406.705,0,0
367946.6,51.2882,-404.703,0,0
369248.225,51.4902,-402.459,0,0
370549.85,52.3804,-400.359,0,0
371851.475,53.3021,-399.198,0,0
373153.1,53.6639,-398.549,0,0
374454.725,53.1271,-397.908,0,0
375756.35,51.922,-396.574,0,0
377057.975,51.3238,-394.566,0,0
378359.6,50.7379,-393.067,0,0
379661,49.5274,-391.03,0,0
380963,49.3399,-388.047,0,0
382264,50.0944,-386.417,0,0
383566,49.7073,-385.692,0,0
384868,48.3241,-384.573,0,0
386169,46.627,-382.582,0,0
387471,45.0341,-379.894,0,0
388773,44.0762,-376.68,0,0
390074,43.6965,-373.446,0,0
391376,43.5967,-370.508,0,0
392677,43.5059,-367.77,0,0
393979,43.3126,-364.921,0,0
395280.7,43.3555,-361.91,0,0
396582.325,43.6929,-359.018,0,0
397883.95,44.0711,-356.342,0,0
399185.575,44.468,-353.756,0,0
400006.6,44.6717,-352.127,0,0