File: Accelerated corrosion test data/2025-10-19_06-00-03/sample_7.csv
Frequency (Hz),Impedance (ohms),Phase (Radians),Temperature (C),Humidity (%)
10000.0,277.271,-12163.8,0,0
11301.625,249.087,-10759.2,0,0
12603.25,265.843,-9707.63,0,0
13904.875,210.587,-8804.89,0,0
15206.5,199.012,-8060.74,0,0
16508.125,172.874,-7417.42,0,0
17809.75,169.117,-6858.57,0,0
19111.375,181.739,-6408.34,0,0
20413.0,172.43,-6025.49,0,0
21714.625,158.105,-5679.55,0,0
23016.25,130.632,-5350.27,0,0
24317.875,122.917,-5055.1,0,0
25619.5,118.89,-4788.86,0,0
26921.1,121.081,-4542.38,0,0
28222.7,181.237,-4314.66,0,0
29524.4,143.056,-4207.62,0,0
30826,130.432,-4013.57,0,0
32127.6,119.805,-3864.93,0,0
33429.2,101.942,-3714.4,0,0
34730.9,92.8821,-3568.27,0,0
36032.5,88.9079,-3433.31,0,0
37334.1,86.3263,-3308.82,0,0
38635.7,86.8339,-3190.52,0,0
39937.4,100.623,-3090.45,0,0
41239,87.9645,-3004.76,0,0
42540.6,79.7146,-2907.3,0,0
43842.225,78.7408,-2817.05,0,0
45143.85,80.7252,-2739.24,0,0
46445.475,77.5058,-2667.01,0,0
47747.1,70.3318,-2589.56,0,0
49048.725,68.2185,-2518.84,0,0
50350.35,66.0013,-2451.06,0,0
51651.975,64.4176,-2387.25,0,0
52953.6,63.7716,-2326.28,0,0
54255.225,62.2987,-2269.52,0,0
55556.85,60.9051,-2214.49,0,0
56858.475,60.0414,-2161.55,0,0
58160.1,59.2287,-2110.83,0,0
59461.7,59.162,-2063.35,0,0
60763.3,58.8481,-2019.16,0,0
62065,56.7678,-1975.42,0,0
63366.6,55.3908,-1932.36,0,0
64668.2,54.7417,-1891.4,0,0
65969.8,54.7982,-1852.75,0,0
67271.5,53.1572,-1815.83,0,0
68573.1,51.8845,-1778.82,0,0
69874.7,51.2673,-1743.41,0,0
71176.3,51.0184,-1709.5,0,0
72478,50.0882,-1677.05,0,0
73779.6,49.1487,-1645.12,0,0
75081.2,48.5856,-1614.13,0,0
76382.825,48.093,-1584.19,0,0
77684.45,47.785,-1555.13,0,0
78986.075,47.371,-1527.05,0,0
80287.7,47.3376,-1499.93,0,0
81589.325,46.9289,-1473.59,0,0
82890.95,46.6541,-1447.74,0,0
84192.575,46.5254,-1422.42,0,0
85494.2,46.8732,-1398.22,0,0
86795.825,46.9558,-1374.79,0,0
88097.45,46.9889,-1352.02,0,0
89399.075,46.3785,-1329.74,0,0
90700.7,46.3861,-1307.28,0,0
92002.3,46.6531,-1285.53,0,0
93303.9,46.9021,-1263.65,0,0
94605.6,50.4181,-1243.11,0,0
95907.2,49.4818,-1226.76,0,0
97208.8,48.5746,-1206.31,0,0
98510.4,49.6556,-1186.99,0,0
99812.1,49.8218,-1168.65,0,0
101114,50.5961,-1149.19,0,0
102415,52.4151,-1130.94,0,0
103717,54.8673,-1113.91,0,0
105019,56.1915,-1099.12,0,0
106320.175,55.5315,-1083.36,0,0
107621.8,55.9679,-1066.2,0,0
108923.425,57.0014,-1049.8,0,0
110225.05,57.6915,-1032.7,0,0
111526.675,60.5245,-1015.59,0,0
112828.3,65.1299,-998.782,0,0
114129.925,70.6626,-984.453,0,0
115431.55,77.1526,-971.12,0,0
116733.175,86.2091,-961.885,0,0
118034.8,91.6955,-957.285,0,0
119336.425,95.5142,-955.875,0,0
120638.05,89.169,-957.823,0,0
121939.675,76.7199,-948.801,0,0
123241,68.7959,-936.008,0,0
124543,63.5982,-921.213,0,0
125845,59.1837,-907.103,0,0
127146,55.3221,-892.762,0,0
128448,53.2756,-877.319,0,0
129749,51.3766,-862.619,0,0
131051,50.3328,-848.184,0,0
132353,48.9968,-832.783,0,0
133654,49.299,-817.063,0,0
134956,52.2287,-801.893,0,0
136258,55.8095,-790.076,0,0
137559,56.427,-781.474,0,0
138860.775,53.6592,-769.171,0,0
140162.4,53.2788,-754.809,0,0
141464.025,53.5878,-741.089,0,0
142765.65,54.5113,-726.514,0,0
144067.275,57.3699,-712.434,0,0
145368.9,60.0621,-700.754,0,0
146670.525,60.7773,-687.93,0,0
147972.15,62.2179,-675.128,0,0
149273.775,62.2923,-662.692,0,0
150575.4,61.9696,-647.546,0,0
151877.025,62.9681,-630.222,0,0
153178.65,66.106,-611.839,0,0
154480,71.2496,-593.236,0,0
155782,78.8009,-573.993,0,0
157084,89.2057,-555.66,0,0
158385,102.823,-539.936,0,0
159687,115.416,-530.251,0,0
160988,119.737,-518.428,0,0
162290,125.421,-496.272,0,0
163592,140.323,-471.283,0,0
164893,163.658,-448.638,0,0
166195,188.258,-425.514,0,0
167497,230.461,-400.377,0,0
168798,289.326,-391.011,0,0
170100,354.256,-408.641,0,0
171401.375,409.874,-456.2,0,0
172703.0,440.789,-521.158,0,0
174004.625,431.897,-603.444,0,0
175306.25,379.345,-645.216,0,0
176607.875,340.086,-640.443,0,0
177909.5,336.11,-633.527,0,0
179211.125,346.873,-659.106,0,0
180512.75,314.452,-692.272,0,0
181814.375,278.75,-708.106,0,0
183116.0,232.284,-706.99,0,0
184417.625,197.332,-686.359,0,0
185719.25,174.344,-663.922,0,0
187021,156.129,-636.819,0,0
188322,148.787,-609.889,0,0
189624,143.92,-589.831,0,0
190926,136.395,-568.194,0,0
192227,134.216,-543.554,0,0
193529,134.912,-517.836,0,0
194831,140.677,-492.904,0,0
196132,151.053,-470.541,0,0
197434,163.396,-452.11,0,0
198735,173.905,-437.38,0,0
200037,181.281,-420.101,0,0
201339,192.381,-398.028,0,0
202640.35,209.386,-373.489,0,0
203941.975,234.22,-351.497,0,0
205243.6,263.532,-332.65,0,0
206545.225,303.636,-319.306,0,0
207846.85,339.885,-321.02,0,0
209148.475,372.908,-314.722,0,0
210450.1,427.747,-315.782,0,0
211751.725,479.759,-349.246,0,0
213053.35,510.619,-394.002,0,0
214354.975,530.713,-433.334,0,0
215656.6,542.47,-480.958,0,0
216958.225,545.832,-530.615,0,0
218259.85,527,-580.872,0,0
219561,489.647,-621.341,0,0
220863,444.851,-627.496,0,0
222165,419.399,-618.363,0,0
223466,408.853,-609.404,0,0
224768,403.971,-605.254,0,0
226070,401.071,-598.848,0,0
227371,409.58,-597.457,0,0
228673,419.202,-606.581,0,0
229974,425.579,-623.258,0,0
231276,426.891,-646.76,0,0
232578,419.946,-671.551,0,0
233879,400.864,-704.344,0,0
235180.95,360.081,-723.385,0,0
236482.575,321.623,-717.354,0,0
237784.2,299.492,-707.25,0,0
239085.825,274.592,-693.23,0,0
240387.45,265.729,-674.143,0,0
241689.075,261.353,-669.894,0,0
242990.7,243.718,-662.229,0,0
244292.325,233.548,-643.339,0,0
245593.95,236.72,-629.036,0,0
246895.575,234.67,-625.034,0,0
248197.2,227.046,-616.668,0,0
249498.825,222.797,-603.07,0,0
250800,222.789,-587.821,0,0
252102,229.885,-572.637,0,0
253404,244.055,-563.006,0,0
254705,260.063,-564.803,0,0
256007,267.666,-574.467,0,0
257309,267.366,-583.035,0,0
258610,263.162,-586.194,0,0
259912,261.472,-588.451,0,0
261213,257.459,-589.529,0,0
262515,254.302,-586.141,0,0
263817,259.358,-583.209,0,0
265118,262.771,-590.288,0,0
266420,259.989,-594.028,0,0
267721.55,260.536,-599.079,0,0
269023.175,254.273,-606.251,0,0
270324.8,248.635,-605.962,0,0
271626.425,250.225,-604.73,0,0
272928.05,259.12,-616.305,0,0
274229.675,251.013,-643.752,0,0
275531.3,221.995,-661.912,0,0
276832.925,185.735,-660.348,0,0
278134.55,157.076,-642.696,0,0
279436.175,142.258,-618.672,0,0
280737.8,137.424,-597.292,0,0
282039.425,136.825,-582.727,0,0
283341,132.833,-568.705,0,0
284643,133.703,-550.883,0,0
285944,140.927,-536.262,0,0
287246,150.453,-528.609,0,0
288548,155.072,-526.158,0,0
289849,155.526,-520.691,0,0
291151,157.462,-511.802,0,0
292452,162.995,-503.355,0,0
293754,169.987,-495.522,0,0
295056,178.52,-489.025,0,0
296357,189.394,-483.17,0,0
297659,203.012,-479.816,0,0
298960.525,218.672,-480.144,0,0
300262.15,235.693,-484.719,0,0
301563.775,254.515,-495.092,0,0
302865.4,274.07,-517.627,0,0
304167.025,276.695,-553.801,0,0
305468.65,261.883,-581.61,0,0
306770.275,241.497,-600.905,0,0
308071.9,218.201,-611.413,0,0
309373.525,194.531,-614.124,0,0
310675.15,174.92,-609.896,0,0
311976.775,159.823,-603.573,0,0
313278.4,147.358,-597.091,0,0
314580,135.71,-589.087,0,0
315882,126.956,-579.097,0,0
317183,121.661,-569.527,0,0
318485,118.041,-561.385,0,0
319787,115.496,-553.781,0,0
321088,114.189,-547.878,0,0
322390,112.522,-542.991,0,0
323691,110.977,-538.457,0,0
324993,109.515,-534.493,0,0
326295,108.327,-530.695,0,0
327596,107.635,-528.117,0,0
328898,105.781,-526.823,0,0
330200,102.923,-525.257,0,0
331501.125,99.5149,-523.903,0,0
332802.75,94.6489,-522.251,0,0
334104.375,88.9694,-519.14,0,0
335406.0,83.6427,-514.691,0,0
336707.625,78.5319,-509.552,0,0
338009.25,74.1376,-503.253,0,0
339310.875,70.8424,-496.639,0,0
340612.5,68.1538,-489.992,0,0
341914.125,65.9691,-482.963,0,0
343215.75,64.9311,-475.83,0,0
344517.375,65.0214,-468.949,0,0
345819.0,66.1428,-463.278,0,0
347121,66.8889,-459.305,0,0
348422,66.1085,-455.694,0,0
349724,64.5535,-450.783,0,0
351025,63.4786,-445.131,0,0
352327,63.3195,-438.537,0,0
353629,64.8518,-432.121,0,0
354930,67.4975,-427.186,0,0
356232,69.8089,-423.951,0,0
357534,70.5956,-421.649,0,0
358835,69.6245,-418.493,0,0
360137,68.7526,-413.297,0,0
361438,69.3564,-407.398,0,0
362740.1,71.1339,-401.356,0,0
364041.725,74.2064,-396.008,0,0
365343.35,77.9233,-391.796,0,0
366644.975,81.5583,-388.96,0,0
367946.6,84.409,-386.471,0,0
369248.225,87.5422,-384.279,0,0
370549.85,90.3159,-383.095,0,0
371851.475,91.5235,-382.51,0,0
373153.1,91.6733,-380.359,0,0
374454.725,92.8613,-377.16,0,0
375756.35,94.7376,-374.582,0,0
377057.975,96.4634,-372.453,0,0
378359.6,97.5435,-370.049,0,0
379661,99.1351,-366.972,0,0
380963,101.258,-364.096,0,0
382264,103.535,-361.413,0,0
383566,106.109,-358.927,0,0
384868,108.508,-356.616,0,0
386169,111.012,-354.505,0,0
387471,113.343,-352.053,0,0
388773,115.558,-348.993,0,0
390074,119.467,-345.067,0,0
391376,124.784,-342.572,0,0
392677,129.778,-340.984,0,0
393979,134.848,-339.84,0,0
395280.7,139.805,-338.3,0,0
396582.325,146.245,-336.212,0,0
397883.95,155.467,-334.595,0,0
399185.575,168.087,-336.546,0,0
400006.6,176.795,-341.166,0,0