File: Accelerated corrosion test data/2025-10-19_06-00-03/sample_1.csv
Frequency (Hz),Impedance (ohms),Phase (Radians),Temperature (C),Humidity (%)
10000.0,244.936,-12310.6,0,0
11301.625,218.052,-10903.9,0,0
12603.25,198.048,-9794.07,0,0
13904.875,186.966,-8860.76,0,0
15206.5,193.144,-8124.03,0,0
16508.125,157.696,-7494.61,0,0
17809.75,149.022,-6952.95,0,0
19111.375,137.654,-6480.24,0,0
20413.0,160.556,-6031.86,0,0
21714.625,137.011,-5713.34,0,0
23016.25,124.243,-5410.37,0,0
24317.875,114.669,-5114.91,0,0
25619.5,106.846,-4847.78,0,0
26921.1,117.209,-4595.03,0,0
28222.7,113.298,-4391.41,0,0
29524.4,110.605,-4226.16,0,0
30826,102.479,-4034.73,0,0
32127.6,99.3989,-3877.61,0,0
33429.2,89.9961,-3731.43,0,0
34730.9,83.7423,-3588.62,0,0
36032.5,79.2448,-3456.29,0,0
37334.1,76.5908,-3332.78,0,0
38635.7,74.2317,-3218.24,0,0
39937.4,72.4554,-3110.3,0,0
41239,74.0505,-3010.79,0,0
42540.6,72.566,-2918.08,0,0
43842.225,68.6841,-2829.88,0,0
45143.85,69.9164,-2747.73,0,0
46445.475,66.1997,-2669.94,0,0
47747.1,65.2339,-2596.33,0,0
49048.725,62.5739,-2525.71,0,0
50350.35,60.5154,-2458.46,0,0
51651.975,59.4982,-2394.48,0,0
52953.6,58.6189,-2332.95,0,0
54255.225,57.5232,-2275.52,0,0
55556.85,56.4013,-2219.53,0,0
56858.475,55.5762,-2165.94,0,0
58160.1,55.2595,-2114.99,0,0
59461.7,55.0178,-2066.52,0,0
60763.3,55.2087,-2020.15,0,0
62065,53.7937,-1975.77,0,0
63366.6,53.1766,-1931.89,0,0
64668.2,53.6699,-1889.39,0,0
65969.8,55.8575,-1851.57,0,0
67271.5,54.1665,-1814.36,0,0
68573.1,53.4316,-1778.5,0,0
69874.7,52.8842,-1743.77,0,0
71176.3,50.9343,-1709.31,0,0
72478,49.1162,-1675.28,0,0
73779.6,48.6723,-1641.72,0,0
75081.2,49.056,-1609.21,0,0
76382.825,49.7104,-1577.93,0,0
77684.45,50.6448,-1548.16,0,0
78986.075,52.4461,-1520.27,0,0
80287.7,51.6468,-1493.84,0,0
81589.325,50.9204,-1465.85,0,0
82890.95,51.4456,-1438.79,0,0
84192.575,52.7118,-1412.17,0,0
85494.2,54.8471,-1387.35,0,0
86795.825,55.7347,-1363.64,0,0
88097.45,56.3602,-1340.04,0,0
89399.075,57.9878,-1315.33,0,0
90700.7,61.2109,-1291.85,0,0
92002.3,66.9258,-1269.76,0,0
93303.9,75.1192,-1251.89,0,0
94605.6,75.1947,-1245.23,0,0
95907.2,68.0854,-1226.81,0,0
97208.8,66.2638,-1206.34,0,0
98510.4,65.7686,-1186.06,0,0
99812.1,64.6249,-1166.5,0,0
101114,63.9245,-1146.36,0,0
102415,64.0031,-1124.35,0,0
103717,68.4553,-1103.24,0,0
105019,75.079,-1085.74,0,0
106320.175,80.718,-1068.9,0,0
107621.8,86.6832,-1055.77,0,0
108923.425,90.9662,-1043.45,0,0
110225.05,94.4841,-1034.08,0,0
111526.675,95.3507,-1021.1,0,0
112828.3,99.0565,-1011.15,0,0
114129.925,99.644,-1003.93,0,0
115431.55,97.0761,-996.215,0,0
116733.175,92.2325,-985.948,0,0
118034.8,86.7506,-972.784,0,0
119336.425,83.9731,-957.439,0,0
120638.05,83.3922,-943.021,0,0
121939.675,81.3655,-930.144,0,0
123241,79.4587,-914.814,0,0
124543,79.5516,-899.537,0,0
125845,80.0597,-884.629,0,0
127146,80.9456,-870.126,0,0
128448,82.7251,-855.189,0,0
129749,84.9361,-840.623,0,0
131051,89.3551,-826.754,0,0
132353,93.7658,-815.136,0,0
133654,97.1682,-803.924,0,0
134956,101.079,-792.782,0,0
136258,104.584,-782.248,0,0
137559,110.458,-772.261,0,0
138860.775,113.926,-766.927,0,0
140162.4,113.427,-760.187,0,0
141464.025,112.004,-750.679,0,0
142765.65,112.1,-739.262,0,0
144067.275,113.502,-727.788,0,0
145368.9,115.605,-716.331,0,0
146670.525,119.502,-705.759,0,0
147972.15,122.336,-697.927,0,0
149273.775,123.14,-687.508,0,0
150575.4,126.108,-678.943,0,0
151877.025,124.451,-669.538,0,0
153178.65,123.241,-655.271,0,0
154480,125.654,-639.064,0,0
155782,131.376,-621.68,0,0
157084,142.497,-606.075,0,0
158385,155.026,-595.37,0,0
159687,164.221,-584.145,0,0
160988,181.402,-572.568,0,0
162290,199.18,-570.31,0,0
163592,210.828,-571.374,0,0
164893,223.06,-569.976,0,0
166195,237.69,-573.309,0,0
167497,248.079,-582.205,0,0
168798,251.801,-594.008,0,0
170100,247.37,-605.087,0,0
171401.375,238.017,-606.21,0,0
172703.0,234.712,-602.362,0,0
174004.625,232.002,-600.372,0,0
175306.25,230.876,-598.081,0,0
176607.875,228.53,-597.552,0,0
177909.5,224.228,-595.241,0,0
179211.125,219.088,-592.631,0,0
180512.75,212.732,-589.342,0,0
181814.375,205.123,-582.488,0,0
183116.0,197.46,-572.375,0,0
184417.625,191.237,-560.018,0,0
185719.25,188.237,-544.736,0,0
187021,187.117,-529.183,0,0
188322,189.406,-512.499,0,0
189624,193.029,-497.981,0,0
190926,196.376,-482.502,0,0
192227,201.755,-465.227,0,0
193529,210.774,-447.826,0,0
194831,221.206,-431.921,0,0
196132,234.074,-414.804,0,0
197434,249.834,-400.235,0,0
198735,265.678,-386.8,0,0
200037,282.528,-370.846,0,0
201339,304.09,-354.34,0,0
202640.35,332.759,-335.211,0,0
203941.975,372.65,-321.861,0,0
205243.6,423.051,-321.184,0,0
206545.225,472.443,-339.698,0,0
207846.85,510.065,-373.021,0,0
209148.475,535.317,-412.794,0,0
210450.1,543.06,-456.454,0,0
211751.725,530.999,-485.531,0,0
213053.35,523.437,-491.435,0,0
214354.975,536.45,-497.884,0,0
215656.6,547.81,-518.398,0,0
216958.225,552.156,-534.58,0,0
218259.85,559.358,-551.247,0,0
219561,568.504,-566.232,0,0
220863,583.29,-585.942,0,0
222165,599.317,-616.155,0,0
223466,605.393,-657.339,0,0
224768,601.536,-700.267,0,0
226070,585.876,-742.426,0,0
227371,563.341,-783.286,0,0
228673,527.472,-817.766,0,0
229974,485.833,-839.38,0,0
231276,443.613,-848.862,0,0
232578,406.21,-847.344,0,0
233879,378.442,-841.179,0,0
235180.95,356.486,-837.028,0,0
236482.575,334.45,-833.688,0,0
237784.2,313.01,-831.343,0,0
239085.825,289.478,-825.483,0,0
240387.45,269.129,-816.1,0,0
241689.075,251.79,-806.016,0,0
242990.7,235.552,-795.294,0,0
244292.325,222.477,-783.897,0,0
245593.95,210.189,-774.119,0,0
246895.575,197.823,-763.569,0,0
248197.2,186.554,-751.925,0,0
249498.825,176.888,-739.374,0,0
250800,169.086,-727.016,0,0
252102,162.641,-715.042,0,0
253404,156.396,-703.244,0,0
254705,151.532,-690.483,0,0
256007,148.791,-678.334,0,0
257309,146.662,-666.897,0,0
258610,145.271,-655.25,0,0
259912,146.117,-643.146,0,0
261213,149.61,-632.95,0,0
262515,153.748,-625.196,0,0
263817,158.224,-618.814,0,0
265118,163.683,-613.937,0,0
266420,170.237,-612.098,0,0
267721.55,176.272,-615.386,0,0
269023.175,176.107,-623.39,0,0
270324.8,167.708,-628.919,0,0
271626.425,156.601,-627.685,0,0
272928.05,147.538,-621.095,0,0
274229.675,142.037,-612.51,0,0
275531.3,139.617,-603.835,0,0
276832.925,139.1,-596.138,0,0
278134.55,140.151,-589.947,0,0
279436.175,140.777,-585.879,0,0
280737.8,140.821,-581.843,0,0
282039.425,141.045,-578.648,0,0
283341,139.491,-575.805,0,0
284643,138.549,-571.709,0,0
285944,137.436,-568.381,0,0
287246,134.918,-564.217,0,0
288548,132.938,-557.323,0,0
289849,135.363,-549.769,0,0
291151,139.017,-546.583,0,0
292452,140.363,-544.993,0,0
293754,139.586,-542.692,0,0
295056,138.626,-537.896,0,0
296357,139.909,-531.981,0,0
297659,143.028,-526.804,0,0
298960.525,147.564,-522.565,0,0
300262.15,152.557,-520.295,0,0
301563.775,157.651,-518.541,0,0
302865.4,164.231,-519.032,0,0
304167.025,168.673,-522.047,0,0
305468.65,172.165,-524.754,0,0
306770.275,175.864,-528.79,0,0
308071.9,177.872,-534.908,0,0
309373.525,177.228,-541.359,0,0
310675.15,175.167,-546.897,0,0
311976.775,171.981,-553.153,0,0
313278.4,165.884,-557.553,0,0
314580,160.485,-559.676,0,0
315882,155.712,-562.504,0,0
317183,149.131,-565.471,0,0
318485,141.126,-567.046,0,0
319787,132.267,-566.682,0,0
321088,123.626,-563.96,0,0
322390,116.034,-559.247,0,0
323691,110.487,-553.136,0,0
324993,107.255,-547.022,0,0
326295,105.8,-541.971,0,0
327596,104.857,-538.737,0,0
328898,103.548,-536.602,0,0
330200,101.482,-534.919,0,0
331501.125,98.7672,-533.432,0,0
332802.75,95.4787,-531.775,0,0
334104.375,91.6293,-529.964,0,0
335406.0,87.2951,-527.108,0,0
336707.625,83.3448,-523.339,0,0
338009.25,79.9417,-519.368,0,0
339310.875,77.1634,-515.206,0,0
340612.5,74.5406,-511.04,0,0
341914.125,72.3214,-507.008,0,0
343215.75,70.0411,-503.106,0,0
344517.375,67.9071,-499.031,0,0
345819.0,65.7749,-494.901,0,0
347121,63.7499,-490.534,0,0
348422,62.1913,-485.795,0,0
349724,61.1947,-481.222,0,0
351025,60.3036,-476.984,0,0
352327,59.5863,-472.67,0,0
353629,59.0442,-468.636,0,0
354930,58.6305,-464.777,0,0
356232,58.1227,-460.978,0,0
357534,57.6717,-457.206,0,0
358835,57.1967,-453.273,0,0
360137,57.0127,-449.275,0,0
361438,56.9503,-445.457,0,0
362740.1,56.9764,-441.589,0,0
364041.725,57.1259,-437.727,0,0
365343.35,57.5653,-433.778,0,0
366644.975,58.1951,-430.134,0,0
367946.6,58.4792,-426.449,0,0
369248.225,59.0737,-422.123,0,0
370549.85,60.6098,-417.565,0,0
371851.475,63.0626,-413.399,0,0
373153.1,66.3803,-410.149,0,0
374454.725,69.7299,-408.198,0,0
375756.35,72.5199,-407.021,0,0
377057.975,74.8412,-406.161,0,0
378359.6,76.949,-405.551,0,0
379661,78.6858,-405.109,0,0
380963,80.5329,-404.543,0,0
382264,82.9778,-404.946,0,0
383566,84.5269,-406.648,0,0
384868,84.6573,-408.943,0,0
386169,83.2661,-410.914,0,0
387471,80.8979,-411.875,0,0
388773,78.1373,-411.709,0,0
390074,75.7193,-410.551,0,0
391376,74.0699,-409.3,0,0
392677,72.162,-408.511,0,0
393979,69.4873,-407.331,0,0
395280.7,66.6303,-405.238,0,0
396582.325,64.0373,-402.273,0,0
397883.95,62.1769,-398.718,0,0
399185.575,61.0192,-395.048,0,0
400006.6,60.4969,-392.843,0,0