File: Accelerated corrosion test data/2025-10-19_06-00-03/sample_8.csv
Frequency (Hz),Impedance (ohms),Phase (Radians),Temperature (C),Humidity (%)
10000.0,306.825,-11059.1,0,0
11301.625,272.193,-9800.18,0,0
12603.25,251,-8800.83,0,0
13904.875,222.477,-7994.09,0,0
15206.5,202.615,-7314.57,0,0
16508.125,187.202,-6743.13,0,0
17809.75,173.995,-6252.75,0,0
19111.375,166.144,-5826.5,0,0
20413.0,159.691,-5462.45,0,0
21714.625,148.329,-5140.17,0,0
23016.25,143.22,-4854.5,0,0
24317.875,131.385,-4595.94,0,0
25619.5,124.411,-4360.9,0,0
26921.1,119.812,-4148.18,0,0
28222.7,116.958,-3957,0,0
29524.4,113.301,-3783.22,0,0
30826,109.273,-3624.46,0,0
32127.6,105.287,-3475.04,0,0
33429.2,105.182,-3337.24,0,0
34730.9,106.123,-3211.66,0,0
36032.5,109.659,-3099.95,0,0
37334.1,106.329,-3000.04,0,0
38635.7,95.9527,-2902.84,0,0
39937.4,88.1928,-2805,0,0
41239,85.4809,-2714.03,0,0
42540.6,82.0102,-2628.49,0,0
43842.225,81.7176,-2550.11,0,0
45143.85,77.028,-2475.08,0,0
46445.475,74.2514,-2403.53,0,0
47747.1,72.2534,-2335.56,0,0
49048.725,70.3196,-2271.6,0,0
50350.35,68.4507,-2210.15,0,0
51651.975,67.324,-2151.58,0,0
52953.6,66.7517,-2096.32,0,0
54255.225,66.0054,-2045.95,0,0
55556.85,62.9838,-1996.26,0,0
56858.475,60.9384,-1947.03,0,0
58160.1,59.8344,-1900.15,0,0
59461.7,59.112,-1855.94,0,0
60763.3,57.8387,-1812.93,0,0
62065,57.4248,-1771.78,0,0
63366.6,57.724,-1731.89,0,0
64668.2,57.9732,-1695.42,0,0
65969.8,57.1707,-1659.82,0,0
67271.5,55.3486,-1625.25,0,0
68573.1,54.3503,-1591.11,0,0
69874.7,53.954,-1557.73,0,0
71176.3,54.0474,-1526.08,0,0
72478,53.914,-1496.01,0,0
73779.6,53.1509,-1466.59,0,0
75081.2,52.2652,-1437.94,0,0
76382.825,51.9876,-1409.68,0,0
77684.45,51.572,-1382.72,0,0
78986.075,50.9344,-1356.25,0,0
80287.7,50.3137,-1329.99,0,0
81589.325,50.3531,-1304,0,0
82890.95,51.1284,-1278.88,0,0
84192.575,52.4129,-1255.05,0,0
85494.2,52.5359,-1233.06,0,0
86795.825,52.0588,-1209.51,0,0
88097.45,52.7749,-1186.62,0,0
89399.075,53.432,-1164.02,0,0
90700.7,55.1895,-1141.02,0,0
92002.3,59.3872,-1120.1,0,0
93303.9,61.5622,-1101.27,0,0
94605.6,63.4562,-1082.21,0,0
95907.2,64.9792,-1062.6,0,0
97208.8,68.31,-1042.9,0,0
98510.4,73.1986,-1024.2,0,0
99812.1,78.5376,-1008.8,0,0
101114,83.9894,-994.49,0,0
102415,88.0019,-983.42,0,0
103717,88.0767,-972.857,0,0
105019,87.2634,-960.971,0,0
106320.175,85.9562,-946.572,0,0
107621.8,86.0322,-933.005,0,0
108923.425,85.4343,-918.068,0,0
110225.05,87.3705,-904.052,0,0
111526.675,88.1669,-891.302,0,0
112828.3,89.0822,-879.209,0,0
114129.925,89.105,-867.167,0,0
115431.55,89.5029,-855.066,0,0
116733.175,88.2164,-843.165,0,0
118034.8,88.3068,-830.314,0,0
119336.425,88.3924,-818.191,0,0
120638.05,87.7436,-806.435,0,0
121939.675,87.2764,-794.277,0,0
123241,86.633,-782.359,0,0
124543,85.549,-770.445,0,0
125845,84.0256,-757.797,0,0
127146,82.6386,-744.285,0,0
128448,82.0342,-730.306,0,0
129749,81.8054,-716.489,0,0
131051,82.6497,-701.644,0,0
132353,83.9549,-688.721,0,0
133654,84.4434,-675.734,0,0
134956,84.9185,-661.307,0,0
136258,87.6352,-647.58,0,0
137559,87.8568,-635.897,0,0
138860.775,86.8961,-620.398,0,0
140162.4,88.8166,-604.139,0,0
141464.025,91.2296,-588.348,0,0
142765.65,93.6154,-571.678,0,0
144067.275,97.9574,-553.831,0,0
145368.9,103.947,-535.406,0,0
146670.525,112.192,-517.508,0,0
147972.15,121.937,-501.556,0,0
149273.775,131.519,-481.949,0,0
150575.4,148.956,-461.352,0,0
151877.025,175.627,-449.821,0,0
153178.65,198.228,-450.638,0,0
154480,210.352,-456.052,0,0
155782,222.342,-453.864,0,0
157084,230.632,-468.97,0,0
158385,221.021,-464.085,0,0
159687,228.712,-458.091,0,0
160988,224.377,-459.718,0,0
162290,223.161,-443.787,0,0
163592,232.559,-435.659,0,0
164893,239.295,-431.295,0,0
166195,241.935,-434.177,0,0
167497,232.76,-430.574,0,0
168798,223.504,-418.494,0,0
170100,216.867,-398.024,0,0
171401.375,215.134,-373.894,0,0
172703.0,220.1,-344.377,0,0
174004.625,233.189,-317.124,0,0
175306.25,246.603,-295.277,0,0
176607.875,261.325,-266.324,0,0
177909.5,282.233,-239.242,0,0
179211.125,312.109,-206.592,0,0
180512.75,351.567,-181.519,0,0
181814.375,396.951,-159.932,0,0
183116.0,452.721,-153.356,0,0
184417.625,499.097,-158.411,0,0
185719.25,551.044,-159.344,0,0
187021,603.696,-180.893,0,0
188322,641.534,-206.466,0,0
189624,675.774,-233.426,0,0
190926,700.874,-253.462,0,0
192227,740.382,-272.501,0,0
193529,770.944,-283.843,0,0
194831,843.778,-302.583,0,0
196132,919.038,-363.247,0,0
197434,976.829,-465.495,0,0
198735,991.129,-594.398,0,0
200037,946.577,-715.406,0,0
201339,873.59,-790.432,0,0
202640.35,794.373,-851.841,0,0
203941.975,702.865,-863.773,0,0
205243.6,640.188,-852.068,0,0
206545.225,591.141,-829.803,0,0
207846.85,571.338,-799.941,0,0
209148.475,565.051,-787.968,0,0
210450.1,559.284,-778.799,0,0
211751.725,564.308,-777.264,0,0
213053.35,567.618,-790.53,0,0
214354.975,560.07,-809.168,0,0
215656.6,549.079,-825.048,0,0
216958.225,535.027,-842.669,0,0
218259.85,518.119,-859.612,0,0
219561,493.258,-879.19,0,0
220863,459.044,-892.049,0,0
222165,423.383,-890.005,0,0
223466,395.049,-879.293,0,0
224768,378.225,-865.592,0,0
226070,370.099,-858.02,0,0
227371,360.459,-859.486,0,0
228673,345.663,-861.401,0,0
229974,331.177,-864.197,0,0
231276,310.109,-869.159,0,0
232578,284.258,-867.741,0,0
233879,256.818,-861.685,0,0
235180.95,229.961,-846.25,0,0
236482.575,210.861,-825.173,0,0
237784.2,198.459,-804.113,0,0
239085.825,190.583,-783.207,0,0
240387.45,189.588,-766.145,0,0
241689.075,189.584,-755.442,0,0
242990.7,184.3,-748.041,0,0
244292.325,177.965,-737.136,0,0
245593.95,173.818,-725.464,0,0
246895.575,171.739,-713.595,0,0
248197.2,170.046,-704.49,0,0
249498.825,167.889,-694.566,0,0
250800,167.364,-684.471,0,0
252102,169.216,-675.291,0,0
253404,172.106,-669.832,0,0
254705,171.969,-667.438,0,0
256007,168.354,-664.233,0,0
257309,162.495,-657.981,0,0
258610,158.627,-647.213,0,0
259912,159.318,-635.641,0,0
261213,162.108,-626.87,0,0
262515,165.494,-619.291,0,0
263817,167.932,-611.69,0,0
265118,171.433,-602.705,0,0
266420,178.771,-591.463,0,0
267721.55,193.931,-582.004,0,0
269023.175,214.964,-581.433,0,0
270324.8,235.422,-590.282,0,0
271626.425,253.001,-610.82,0,0
272928.05,259.433,-640.784,0,0
274229.675,247.549,-674.477,0,0
275531.3,218.542,-694.113,0,0
276832.925,190.201,-697.223,0,0
278134.55,167.01,-691.879,0,0
279436.175,148.809,-681.981,0,0
280737.8,137.035,-668.419,0,0
282039.425,131.655,-656.956,0,0
283341,128.258,-648.509,0,0
284643,124.619,-640.848,0,0
285944,123.937,-632.436,0,0
287246,127.579,-627.58,0,0
288548,130.641,-631.216,0,0
289849,124.853,-638.087,0,0
291151,112.717,-639.624,0,0
292452,101.095,-636.241,0,0
293754,90.7306,-629.85,0,0
295056,81.949,-621.568,0,0
296357,75.4896,-612.061,0,0
297659,70.8504,-602.877,0,0
298960.525,67.071,-593.548,0,0
300262.15,64.6913,-584.003,0,0
301563.775,63.8606,-574.615,0,0
302865.4,64.8135,-566.009,0,0
304167.025,66.7768,-559.13,0,0
305468.65,68.9226,-553.584,0,0
306770.275,71.1987,-549.507,0,0
308071.9,72.7314,-546.497,0,0
309373.525,73.7744,-544.759,0,0
310675.15,72.7829,-542.979,0,0
311976.775,71.8026,-540.262,0,0
313278.4,70.8566,-537.93,0,0
314580,69.0368,-535.558,0,0
315882,67.0664,-532.399,0,0
317183,65.4676,-528.504,0,0
318485,64.4668,-524.963,0,0
319787,63.5932,-521.321,0,0
321088,63.4648,-518.153,0,0
322390,62.918,-515.929,0,0
323691,61.7041,-514.021,0,0
324993,59.6366,-512.086,0,0
326295,56.9754,-509.123,0,0
327596,54.8034,-505.653,0,0
328898,52.7536,-502.088,0,0
330200,50.6666,-498.196,0,0
331501.125,48.8624,-493.837,0,0
332802.75,47.387,-489.274,0,0
334104.375,46.4851,-484.479,0,0
335406.0,46.557,-479.801,0,0
336707.625,47.0331,-476.085,0,0
338009.25,47.2613,-473.095,0,0
339310.875,46.868,-470.467,0,0
340612.5,45.9568,-467.61,0,0
341914.125,44.7126,-464.468,0,0
343215.75,43.5789,-460.705,0,0
344517.375,42.7265,-456.704,0,0
345819.0,42.2773,-452.488,0,0
347121,42.1647,-448.22,0,0
348422,42.4339,-444.134,0,0
349724,42.9405,-440.143,0,0
351025,43.8015,-436.193,0,0
352327,45.0887,-432.665,0,0
353629,46.503,-429.61,0,0
354930,47.777,-427.071,0,0
356232,48.9152,-424.751,0,0
357534,49.8273,-422.698,0,0
358835,50.4312,-420.637,0,0
360137,51.0584,-418.57,0,0
361438,51.7057,-416.481,0,0
362740.1,52.3333,-414.681,0,0
364041.725,52.7552,-412.977,0,0
365343.35,53.056,-411.208,0,0
366644.975,53.2562,-409.525,0,0
367946.6,53.3247,-407.643,0,0
369248.225,53.4122,-405.524,0,0
370549.85,54.1338,-403.298,0,0
371851.475,55.2343,-401.896,0,0
373153.1,55.8542,-401.141,0,0
374454.725,55.7404,-400.592,0,0
375756.35,54.9223,-399.711,0,0
377057.975,54.1066,-398.139,0,0
378359.6,53.5812,-396.761,0,0
379661,52.3627,-395.149,0,0
380963,51.9162,-392.444,0,0
382264,52.5337,-391.037,0,0
383566,51.7891,-390.415,0,0
384868,50.2728,-389.267,0,0
386169,48.4506,-387.344,0,0
387471,46.8325,-384.752,0,0
388773,45.6142,-381.727,0,0
390074,44.9751,-378.51,0,0
391376,44.6911,-375.584,0,0
392677,44.3598,-372.816,0,0
393979,44.0269,-369.995,0,0
395280.7,43.8437,-366.988,0,0
396582.325,43.9841,-364.007,0,0
397883.95,44.336,-361.297,0,0
399185.575,44.5926,-358.737,0,0
400006.6,44.6837,-357.167,0,0