File: Accelerated corrosion test data/2025-10-19_06-00-03/sample_3.csv
Frequency (Hz),Impedance (ohms),Phase (Radians),Temperature (C),Humidity (%)
10000.0,255.91,-11953,0,0
11301.625,228.18,-10587.4,0,0
12603.25,206.918,-9501.79,0,0
13904.875,188.955,-8617.5,0,0
15206.5,177.534,-7875.57,0,0
16508.125,164.616,-7273.66,0,0
17809.75,159.878,-6738.82,0,0
19111.375,149.729,-6281.37,0,0
20413.0,164.515,-5875.65,0,0
21714.625,143.58,-5549.32,0,0
23016.25,130.085,-5239.95,0,0
24317.875,122.468,-4957.07,0,0
25619.5,115.722,-4706.47,0,0
26921.1,111.515,-4472.32,0,0
28222.7,106.336,-4262.32,0,0
29524.4,110.731,-4084.01,0,0
30826,103.617,-3909.53,0,0
32127.6,104.295,-3741.45,0,0
33429.2,101.358,-3618.45,0,0
34730.9,89.4239,-3477.37,0,0
36032.5,84.8772,-3347.73,0,0
37334.1,81.7229,-3228.11,0,0
38635.7,79.2661,-3116.53,0,0
39937.4,77.2626,-3012.62,0,0
41239,75.766,-2914.35,0,0
42540.6,74.3971,-2823.29,0,0
43842.225,73.1741,-2736.56,0,0
45143.85,71.9754,-2655.92,0,0
46445.475,70.8359,-2578.83,0,0
47747.1,71.8049,-2505.56,0,0
49048.725,69.5795,-2439.36,0,0
50350.35,67.5589,-2373.18,0,0
51651.975,67.0717,-2309.9,0,0
52953.6,67.1975,-2249.28,0,0
54255.225,69.7235,-2193.25,0,0
55556.85,67.7096,-2144.77,0,0
56858.475,62.4883,-2091.65,0,0
58160.1,61.8319,-2039.04,0,0
59461.7,62.2753,-1989.12,0,0
60763.3,63.4772,-1941.92,0,0
62065,65.3334,-1896.4,0,0
63366.6,68.8902,-1852.2,0,0
64668.2,77.2451,-1809.71,0,0
65969.8,93.1942,-1781.67,0,0
67271.5,75.8891,-1757.71,0,0
68573.1,76.0328,-1718.87,0,0
69874.7,77.5165,-1689.01,0,0
71176.3,72.9833,-1658.39,0,0
72478,71.6955,-1625.32,0,0
73779.6,70.6925,-1597.29,0,0
75081.2,66.9891,-1569.59,0,0
76382.825,63.0105,-1540.63,0,0
77684.45,59.9862,-1511.57,0,0
78986.075,57.312,-1482.8,0,0
80287.7,55.4677,-1454.3,0,0
81589.325,54.208,-1426.66,0,0
82890.95,53.5374,-1399.85,0,0
84192.575,53.1285,-1373.77,0,0
85494.2,52.8401,-1348.49,0,0
86795.825,52.8999,-1323.79,0,0
88097.45,53.2749,-1299.63,0,0
89399.075,54.532,-1275.51,0,0
90700.7,56.274,-1253.41,0,0
92002.3,58.3705,-1232.24,0,0
93303.9,61.0856,-1212.7,0,0
94605.6,62.5118,-1197.8,0,0
95907.2,57.3939,-1179.43,0,0
97208.8,55.9658,-1157.97,0,0
98510.4,55.8847,-1137.82,0,0
99812.1,55.7192,-1118.42,0,0
101114,55.4294,-1098.64,0,0
102415,56.8277,-1078.05,0,0
103717,60.4102,-1060.07,0,0
105019,64.1722,-1045.34,0,0
106320.175,64.1071,-1031.47,0,0
107621.8,62.4097,-1016.14,0,0
108923.425,60.2153,-999.27,0,0
110225.05,59.7511,-980.846,0,0
111526.675,61.7002,-962.552,0,0
112828.3,63.9515,-946.444,0,0
114129.925,64.9837,-930.785,0,0
115431.55,66.3672,-913.755,0,0
116733.175,69.3717,-896.606,0,0
118034.8,75.105,-879.509,0,0
119336.425,82.043,-866.15,0,0
120638.05,89.3261,-860.047,0,0
121939.675,85.6398,-851.911,0,0
123241,86.093,-837.569,0,0
124543,88.1075,-825.116,0,0
125845,90.4072,-814.236,0,0
127146,90.9107,-804.236,0,0
128448,90.203,-794.188,0,0
129749,89.4497,-782.038,0,0
131051,90.4429,-770.282,0,0
132353,89.0483,-759.431,0,0
133654,87.9924,-747.535,0,0
134956,86.667,-734.74,0,0
136258,85.3301,-721.631,0,0
137559,84.7226,-706.594,0,0
138860.775,86.3005,-693.2,0,0
140162.4,85.7784,-680.051,0,0
141464.025,84.9284,-666.685,0,0
142765.65,83.4128,-650.857,0,0
144067.275,83.3476,-633.641,0,0
145368.9,84.7184,-615.589,0,0
146670.525,86.9446,-596.776,0,0
147972.15,90.8176,-577.331,0,0
149273.775,96.6094,-556.986,0,0
150575.4,105.948,-536.748,0,0
151877.025,117.5,-518.673,0,0
153178.65,129.684,-504.086,0,0
154480,140.716,-490.218,0,0
155782,149.914,-475.519,0,0
157084,161.312,-458.217,0,0
158385,177.853,-447.617,0,0
159687,182.529,-433.914,0,0
160988,194.434,-409.183,0,0
162290,216.042,-381.826,0,0
163592,247.817,-357.509,0,0
164893,293.394,-341.689,0,0
166195,344.638,-348.441,0,0
167497,387.91,-372.08,0,0
168798,412.179,-404.382,0,0
170100,420.13,-441.575,0,0
171401.375,415.623,-456.729,0,0
172703.0,418.097,-468.468,0,0
174004.625,426.242,-481.035,0,0
175306.25,433.014,-497.728,0,0
176607.875,435.513,-528.126,0,0
177909.5,407.733,-556.436,0,0
179211.125,374.198,-548.386,0,0
180512.75,368.015,-529.785,0,0
181814.375,374.946,-526.409,0,0
183116.0,371.485,-533.557,0,0
184417.625,358.398,-536.729,0,0
185719.25,341.243,-529.885,0,0
187021,329.387,-510.73,0,0
188322,327.972,-492.352,0,0
189624,327.924,-472.945,0,0
190926,335.887,-454.655,0,0
192227,344.568,-439.209,0,0
193529,355.801,-418.659,0,0
194831,377.639,-403.405,0,0
196132,403.736,-392.897,0,0
197434,428.352,-398.276,0,0
198735,443.723,-406.104,0,0
200037,451.35,-407.209,0,0
201339,460.085,-397.551,0,0
202640.35,482.849,-386.28,0,0
203941.975,515.251,-387.346,0,0
205243.6,542.439,-402.728,0,0
206545.225,552.564,-413.2,0,0
207846.85,573.217,-411.811,0,0
209148.475,608.626,-417.619,0,0
210450.1,641.516,-437.888,0,0
211751.725,672.791,-467.198,0,0
213053.35,698.181,-502.278,0,0
214354.975,715.311,-548.283,0,0
215656.6,720.734,-592.102,0,0
216958.225,722.197,-638.51,0,0
218259.85,709.359,-684.47,0,0
219561,692.696,-719.64,0,0
220863,678.592,-756.031,0,0
222165,654.967,-799.118,0,0
223466,611.381,-830.987,0,0
224768,568.119,-840.755,0,0
226070,540.909,-842.683,0,0
227371,519.357,-850.289,0,0
228673,491.89,-860.71,0,0
229974,465.112,-865.756,0,0
231276,436.211,-867.896,0,0
232578,410.291,-865.324,0,0
233879,386.987,-862.009,0,0
235180.95,365.828,-857.705,0,0
236482.575,343.42,-854.722,0,0
237784.2,319.875,-848.942,0,0
239085.825,296.335,-837.877,0,0
240387.45,276.609,-824.422,0,0
241689.075,259.052,-808.297,0,0
242990.7,247.252,-789.902,0,0
244292.325,240.725,-776.504,0,0
245593.95,230.622,-763.771,0,0
246895.575,223.595,-748.757,0,0
248197.2,218.427,-734.864,0,0
249498.825,217.657,-720.536,0,0
250800,217.971,-712.942,0,0
252102,213.817,-706.923,0,0
253404,207.29,-698.412,0,0
254705,200.579,-685.502,0,0
256007,198.412,-668.895,0,0
257309,203.068,-653.36,0,0
258610,209.941,-640.82,0,0
259912,222.441,-630.46,0,0
261213,239.466,-627.192,0,0
262515,254.466,-638.362,0,0
263817,256.655,-654.034,0,0
265118,249.714,-667.29,0,0
266420,236.284,-675.987,0,0
267721.55,218.826,-675.185,0,0
269023.175,206.994,-666.975,0,0
270324.8,199.096,-657.492,0,0
271626.425,195.223,-647.908,0,0
272928.05,192.964,-640.296,0,0
274229.675,190.739,-631.305,0,0
275531.3,191.658,-621.5,0,0
276832.925,197.219,-612.828,0,0
278134.55,205.473,-609.445,0,0
279436.175,212.989,-611.764,0,0
280737.8,216.325,-618.041,0,0
282039.425,214.5,-624.513,0,0
283341,209.455,-629.194,0,0
284643,202.463,-631.167,0,0
285944,195.057,-630.031,0,0
287246,189.433,-626.323,0,0
288548,186.407,-622.894,0,0
289849,185.039,-620.099,0,0
291151,182.787,-621.067,0,0
292452,176.85,-620.544,0,0
293754,171.266,-616.615,0,0
295056,168.411,-611.624,0,0
296357,168.026,-608.424,0,0
297659,166.902,-607.626,0,0
298960.525,164.312,-607.333,0,0
300262.15,160.781,-607.051,0,0
301563.775,156.123,-606.354,0,0
302865.4,150.578,-604.508,0,0
304167.025,145.131,-601.367,0,0
305468.65,140.148,-596.995,0,0
306770.275,136.384,-591.922,0,0
308071.9,133.941,-586.758,0,0
309373.525,132.468,-582.437,0,0
310675.15,131.361,-579.24,0,0
311976.775,129.171,-577.175,0,0
313278.4,125.529,-574.564,0,0
314580,121.468,-569.995,0,0
315882,119.341,-564.014,0,0
317183,119.126,-558.882,0,0
318485,119.181,-555.085,0,0
319787,118.903,-551.599,0,0
321088,118.992,-548.248,0,0
322390,120.075,-545.393,0,0
323691,121.846,-544.511,0,0
324993,121.884,-545.856,0,0
326295,119.512,-547.254,0,0
327596,115.657,-547.573,0,0
328898,111.04,-546.689,0,0
330200,106.575,-544.581,0,0
331501.125,102.279,-542.15,0,0
332802.75,97.5337,-539.081,0,0
334104.375,92.893,-535.066,0,0
335406.0,88.6635,-529.997,0,0
336707.625,85.3789,-524.283,0,0
338009.25,82.8172,-518.456,0,0
339310.875,80.7553,-512.39,0,0
340612.5,79.6292,-505.518,0,0
341914.125,80.4517,-498.619,0,0
343215.75,82.9374,-493.456,0,0
344517.375,85.308,-490.473,0,0
345819.0,86.3559,-488.504,0,0
347121,86.3388,-486.64,0,0
348422,85.3476,-484.255,0,0
349724,84.6208,-480.477,0,0
351025,85.6167,-476.443,0,0
352327,87.4543,-474.318,0,0
353629,88.0318,-473.513,0,0
354930,87.2285,-472.527,0,0
356232,85.9459,-470.847,0,0
357534,84.2172,-468.495,0,0
358835,83.0962,-464.982,0,0
360137,83.1367,-461.767,0,0
361438,83.0896,-459.312,0,0
362740.1,82.4484,-456.67,0,0
364041.725,82.6075,-453.255,0,0
365343.35,83.7952,-450.822,0,0
366644.975,84.6783,-449.758,0,0
367946.6,83.8612,-449.341,0,0
369248.225,81.5271,-447.349,0,0
370549.85,80.7267,-443.316,0,0
371851.475,82.0651,-440.472,0,0
373153.1,82.6175,-439.919,0,0
374454.725,80.9449,-438.849,0,0
375756.35,79.0995,-436.158,0,0
377057.975,78.3304,-432.477,0,0
378359.6,78.728,-428.969,0,0
379661,80.0174,-426.239,0,0
380963,81.1336,-425.035,0,0
382264,81.1654,-424.027,0,0
383566,80.786,-423.021,0,0
384868,79.579,-421.94,0,0
386169,77.8645,-420.068,0,0
387471,76.1152,-417.301,0,0
388773,74.6966,-413.603,0,0
390074,74.3552,-409.109,0,0
391376,75.415,-404.626,0,0
392677,77.8959,-401.095,0,0
393979,80.4928,-399.263,0,0
395280.7,82.5886,-398.093,0,0
396582.325,84.3853,-397.634,0,0
397883.95,85.5597,-397.804,0,0
399185.575,85.8845,-398.146,0,0
400006.6,85.781,-398.52,0,0