File: Accelerated corrosion test data/2025-10-06_06-00-03/sample_7.csv
Frequency (Hz),Impedance (ohms),Phase (Radians),Temperature (C),Humidity (%)
10000.0,274.626,-12054.3,0,0
11301.625,247.478,-10663.3,0,0
12603.25,261.495,-9622.57,0,0
13904.875,209.281,-8726.18,0,0
15206.5,198.863,-7986.97,0,0
16508.125,172.72,-7350.47,0,0
17809.75,168.966,-6796.16,0,0
19111.375,185.8,-6363.95,0,0
20413.0,168.637,-5958.77,0,0
21714.625,154.407,-5618.81,0,0
23016.25,131.731,-5301.33,0,0
24317.875,123.83,-5009.55,0,0
25619.5,119.821,-4746.29,0,0
26921.1,124.45,-4502.54,0,0
28222.7,180.868,-4297.6,0,0
29524.4,136.185,-4155.95,0,0
30826,135.988,-3975.69,0,0
32127.6,118.457,-3829.73,0,0
33429.2,102.723,-3678.45,0,0
34730.9,93.5425,-3534.42,0,0
36032.5,89.5521,-3401.47,0,0
37334.1,86.9972,-3277.9,0,0
38635.7,87.3305,-3161.69,0,0
39937.4,98.4164,-3061.21,0,0
41239,87.7049,-2974.21,0,0
42540.6,81.0294,-2878.67,0,0
43842.225,80.742,-2790.51,0,0
45143.85,81.2732,-2713.15,0,0
46445.475,78.7751,-2639.47,0,0
47747.1,71.8468,-2564.69,0,0
49048.725,69.1961,-2494.58,0,0
50350.35,67.1165,-2427.61,0,0
51651.975,65.6368,-2364.23,0,0
52953.6,64.7527,-2303.93,0,0
54255.225,63.4966,-2247.31,0,0
55556.85,62.3049,-2192.58,0,0
56858.475,61.5035,-2140.48,0,0
58160.1,60.7548,-2090.31,0,0
59461.7,60.8712,-2042.99,0,0
60763.3,60.466,-1999.28,0,0
62065,58.3849,-1956.06,0,0
63366.6,57.3033,-1913.55,0,0
64668.2,56.3643,-1873.07,0,0
65969.8,56.4423,-1834.67,0,0
67271.5,54.6019,-1797.95,0,0
68573.1,53.4232,-1761.25,0,0
69874.7,52.9707,-1726.02,0,0
71176.3,52.797,-1692.75,0,0
72478,51.6426,-1660.46,0,0
73779.6,50.8538,-1628.72,0,0
75081.2,50.3636,-1597.99,0,0
76382.825,49.8506,-1568.32,0,0
77684.45,49.5477,-1539.53,0,0
78986.075,49.2574,-1511.6,0,0
80287.7,49.1069,-1484.67,0,0
81589.325,48.8001,-1458.48,0,0
82890.95,48.7605,-1432.83,0,0
84192.575,48.6517,-1407.86,0,0
85494.2,48.9324,-1383.92,0,0
86795.825,48.869,-1360.55,0,0
88097.45,49.1332,-1337.65,0,0
89399.075,48.9553,-1315.48,0,0
90700.7,49.2428,-1293.45,0,0
92002.3,49.713,-1272.32,0,0
93303.9,49.9949,-1251.18,0,0
94605.6,52.7451,-1231.67,0,0
95907.2,51.4988,-1213.9,0,0
97208.8,51.2121,-1193.97,0,0
98510.4,52.0307,-1174.63,0,0
99812.1,51.6676,-1156.37,0,0
101114,53.1292,-1137.27,0,0
102415,54.6797,-1119.16,0,0
103717,57.2427,-1102.28,0,0
105019,58.6605,-1087.56,0,0
106320.175,58.2496,-1071.7,0,0
107621.8,59.2855,-1055.21,0,0
108923.425,60.3098,-1039.6,0,0
110225.05,60.6062,-1023.2,0,0
111526.675,63.5171,-1006.23,0,0
112828.3,67.3588,-990.319,0,0
114129.925,72.4369,-976.374,0,0
115431.55,77.8252,-963.676,0,0
116733.175,85.5822,-954.184,0,0
118034.8,88.6543,-948.82,0,0
119336.425,91.4154,-945.378,0,0
120638.05,85.5723,-943.803,0,0
121939.675,75.4782,-933.351,0,0
123241,69.6057,-920.478,0,0
124543,65.0742,-906.378,0,0
125845,61.3583,-892.93,0,0
127146,58.1958,-878.232,0,0
128448,56.5637,-863.076,0,0
129749,55.5395,-848.771,0,0
131051,54.4219,-834.139,0,0
132353,53.6595,-819.173,0,0
133654,54.3728,-803.526,0,0
134956,57.7825,-788.636,0,0
136258,62.3003,-775.975,0,0
137559,63.1313,-768.205,0,0
138860.775,61.4975,-756.475,0,0
140162.4,61.6078,-742.774,0,0
141464.025,62.007,-729.841,0,0
142765.65,63.0401,-715.926,0,0
144067.275,65.4622,-702.852,0,0
145368.9,66.8969,-690.429,0,0
146670.525,68.1449,-677.13,0,0
147972.15,69.7144,-664.035,0,0
149273.775,70.9614,-650.653,0,0
150575.4,71.8799,-635.169,0,0
151877.025,74.3413,-617.845,0,0
153178.65,79.4336,-599.918,0,0
154480,86.3697,-582.115,0,0
155782,96.1508,-564.908,0,0
157084,108.063,-549.97,0,0
158385,120.598,-538.386,0,0
159687,128.61,-529.488,0,0
160988,132.381,-513.829,0,0
162290,143.331,-489.815,0,0
163592,163.016,-466.919,0,0
164893,189.38,-448.828,0,0
166195,219.716,-430.825,0,0
167497,266.969,-419.797,0,0
168798,319.332,-429.675,0,0
170100,362.702,-459.799,0,0
171401.375,395.602,-507.206,0,0
172703.0,406.719,-562.407,0,0
174004.625,382.769,-614.78,0,0
175306.25,341.306,-632.962,0,0
176607.875,322.482,-622.041,0,0
177909.5,330.424,-625.919,0,0
179211.125,328.742,-664.337,0,0
180512.75,295.264,-684.203,0,0
181814.375,255.894,-696.48,0,0
183116.0,212.927,-686.019,0,0
184417.625,185.534,-660.871,0,0
185719.25,169.74,-638.561,0,0
187021,155.675,-611.987,0,0
188322,153.487,-587.543,0,0
189624,147.018,-572.22,0,0
190926,140.284,-548.442,0,0
192227,140.772,-523.028,0,0
193529,143.582,-498.353,0,0
194831,151.199,-473.834,0,0
196132,162.641,-452.658,0,0
197434,175.231,-433.194,0,0
198735,188.039,-414.701,0,0
200037,203.036,-394.603,0,0
201339,223.611,-374.51,0,0
202640.35,249.419,-355.478,0,0
203941.975,281.882,-341.659,0,0
205243.6,318.266,-335.64,0,0
206545.225,357.147,-342.029,0,0
207846.85,380.973,-353.07,0,0
209148.475,411.514,-350.642,0,0
210450.1,464.058,-367.433,0,0
211751.725,500.97,-416.213,0,0
213053.35,509.378,-465.206,0,0
214354.975,505.512,-508.672,0,0
215656.6,490.787,-538.964,0,0
216958.225,480.275,-567.432,0,0
218259.85,456.967,-593.165,0,0
219561,425.388,-606.564,0,0
220863,398.023,-600.686,0,0
222165,385.256,-586.719,0,0
223466,384.021,-575.552,0,0
224768,387.702,-567.595,0,0
226070,399.47,-560.193,0,0
227371,417.365,-567.321,0,0
228673,434.549,-582.964,0,0
229974,443.256,-611.993,0,0
231276,439.947,-645.438,0,0
232578,424.239,-674.366,0,0
233879,399.481,-704.514,0,0
235180.95,354.827,-718.2,0,0
236482.575,319.482,-709.783,0,0
237784.2,292.257,-699.323,0,0
239085.825,271.805,-677.352,0,0
240387.45,269.084,-658.921,0,0
241689.075,263.514,-655.118,0,0
242990.7,249.608,-645.241,0,0
244292.325,243.077,-626.112,0,0
245593.95,250.218,-611.732,0,0
246895.575,253.979,-607.564,0,0
248197.2,254.972,-602.691,0,0
249498.825,257.838,-597.907,0,0
250800,262.015,-596.574,0,0
252102,265.027,-597.447,0,0
253404,266.516,-601.385,0,0
254705,263.456,-607.524,0,0
256007,255.285,-610.334,0,0
257309,245.953,-608.752,0,0
258610,237.64,-602.408,0,0
259912,233.657,-594.513,0,0
261213,231.316,-584.383,0,0
262515,237.012,-572.865,0,0
263817,248.699,-570.275,0,0
265118,255.999,-575.439,0,0
266420,259.283,-579.876,0,0
267721.55,262.788,-586.357,0,0
269023.175,261.969,-594.028,0,0
270324.8,262.185,-598.884,0,0
271626.425,265.856,-608.078,0,0
272928.05,267.969,-630.296,0,0
274229.675,247.841,-657.426,0,0
275531.3,211.633,-668.169,0,0
276832.925,176.434,-658.951,0,0
278134.55,152.057,-637.203,0,0
279436.175,141.571,-613.681,0,0
280737.8,138.718,-594.102,0,0
282039.425,138.542,-581.022,0,0
283341,135.767,-568.404,0,0
284643,135.747,-553.008,0,0
285944,140.718,-540.364,0,0
287246,146.052,-531.788,0,0
288548,149.346,-524.299,0,0
289849,153.437,-515.235,0,0
291151,160.045,-506.744,0,0
292452,168.102,-500.872,0,0
293754,175.904,-496.321,0,0
295056,184.301,-492.153,0,0
296357,194.868,-488.684,0,0
297659,207.814,-488.319,0,0
298960.525,220.897,-492.358,0,0
300262.15,234.166,-498.541,0,0
301563.775,249.302,-511.164,0,0
302865.4,260.717,-535.417,0,0
304167.025,254.982,-563.957,0,0
305468.65,239.562,-584.626,0,0
306770.275,219.183,-597.732,0,0
308071.9,198.21,-602.215,0,0
309373.525,179.204,-600.997,0,0
310675.15,163.868,-595.574,0,0
311976.775,152.442,-588.889,0,0
313278.4,142.941,-582.636,0,0
314580,134.256,-575.49,0,0
315882,127.855,-567.067,0,0
317183,124.069,-559.463,0,0
318485,120.996,-553.384,0,0
319787,118.632,-547.296,0,0
321088,117.433,-542.783,0,0
322390,115.597,-539.458,0,0
323691,113.071,-536.612,0,0
324993,110.141,-533.27,0,0
326295,107.6,-529.717,0,0
327596,105.239,-526.932,0,0
328898,102.129,-524.248,0,0
330200,98.7515,-521.178,0,0
331501.125,95.6146,-518.24,0,0
332802.75,91.3668,-515.498,0,0
334104.375,86.4523,-511.472,0,0
335406.0,81.9627,-506.275,0,0
336707.625,78.0241,-500.378,0,0
338009.25,74.9868,-493.783,0,0
339310.875,73.0531,-487.225,0,0
340612.5,71.5712,-480.911,0,0
341914.125,70.6367,-474.408,0,0
343215.75,70.6436,-468.21,0,0
344517.375,71.29,-462.418,0,0
345819.0,72.3913,-457.493,0,0
347121,73.2979,-453.746,0,0
348422,73.2096,-450.26,0,0
349724,72.5995,-446.051,0,0
351025,72.2607,-441.406,0,0
352327,72.6726,-435.926,0,0
353629,74.4054,-431.08,0,0
354930,76.4122,-427.473,0,0
356232,78.1942,-424.835,0,0
357534,78.515,-422.846,0,0
358835,77.6165,-419.797,0,0
360137,77.2,-415.136,0,0
361438,78.1652,-410.179,0,0
362740.1,80.1112,-405.749,0,0
364041.725,82.3624,-402.082,0,0
365343.35,84.8628,-398.805,0,0
366644.975,87.4946,-396.434,0,0
367946.6,89.7056,-394.481,0,0
369248.225,91.9016,-393.19,0,0
370549.85,92.9081,-393.002,0,0
371851.475,91.7918,-391.816,0,0
373153.1,90.9542,-388.366,0,0
374454.725,91.5274,-384.497,0,0
375756.35,92.8019,-380.871,0,0
377057.975,94.3656,-377.559,0,0
378359.6,95.9239,-374.105,0,0
379661,98.387,-370.461,0,0
380963,101.236,-367.659,0,0
382264,103.958,-364.95,0,0
383566,107.27,-362.529,0,0
384868,110.415,-360.716,0,0
386169,113.383,-359.151,0,0
387471,116.397,-357.395,0,0
388773,119.483,-355.531,0,0
390074,123.75,-353.718,0,0
391376,128.093,-353.047,0,0
392677,132.242,-352.608,0,0
393979,136.793,-352.305,0,0
395280.7,142.023,-352.285,0,0
396582.325,148.398,-353.394,0,0
397883.95,155.821,-357.024,0,0
399185.575,161.763,-364.264,0,0
400006.6,163.884,-370.103,0,0