File: Accelerated corrosion test data/2025-10-06_06-00-03/sample_1.csv
Frequency (Hz),Impedance (ohms),Phase (Radians),Temperature (C),Humidity (%)
10000.0,238.14,-12227.2,0,0
11301.625,212.635,-10828.9,0,0
12603.25,192.803,-9727.43,0,0
13904.875,180.412,-8801.91,0,0
15206.5,181.425,-8068.4,0,0
16508.125,154.316,-7441.83,0,0
17809.75,145.027,-6906.06,0,0
19111.375,134.952,-6435.68,0,0
20413.0,154.13,-5993.08,0,0
21714.625,139.177,-5678.6,0,0
23016.25,122.027,-5371.15,0,0
24317.875,112.487,-5078.39,0,0
25619.5,103.886,-4813.24,0,0
26921.1,112.338,-4565.42,0,0
28222.7,109.923,-4360.05,0,0
29524.4,106.546,-4193.3,0,0
30826,100.55,-4007,0,0
32127.6,97.9001,-3846.79,0,0
33429.2,88.6346,-3703.74,0,0
34730.9,81.9665,-3561.84,0,0
36032.5,77.3598,-3430.18,0,0
37334.1,74.8585,-3307.64,0,0
38635.7,72.6197,-3193.83,0,0
39937.4,70.8936,-3086.89,0,0
41239,71.747,-2987.89,0,0
42540.6,70.1574,-2895.68,0,0
43842.225,67.5631,-2808.46,0,0
45143.85,68.5896,-2726.83,0,0
46445.475,65.5651,-2650.87,0,0
47747.1,63.5356,-2577.16,0,0
49048.725,61.3363,-2506.34,0,0
50350.35,59.5315,-2439.69,0,0
51651.975,58.6779,-2375.91,0,0
52953.6,57.5725,-2314.91,0,0
54255.225,56.8075,-2257.67,0,0
55556.85,55.9483,-2202.19,0,0
56858.475,54.844,-2149.36,0,0
58160.1,54.5896,-2098.57,0,0
59461.7,54.2905,-2050.45,0,0
60763.3,54.4593,-2004.29,0,0
62065,53.0951,-1960.39,0,0
63366.6,52.4564,-1916.77,0,0
64668.2,52.8481,-1874.68,0,0
65969.8,55.1882,-1836.6,0,0
67271.5,53.7062,-1799.97,0,0
68573.1,53.3028,-1764.48,0,0
69874.7,52.2001,-1730.61,0,0
71176.3,50.4836,-1695.66,0,0
72478,48.5522,-1661.98,0,0
73779.6,48.1493,-1628.54,0,0
75081.2,48.5064,-1596.28,0,0
76382.825,49.3313,-1565.08,0,0
77684.45,50.1867,-1535.72,0,0
78986.075,51.9343,-1507.97,0,0
80287.7,51.1994,-1481.53,0,0
81589.325,50.903,-1453.58,0,0
82890.95,51.2961,-1426.64,0,0
84192.575,52.93,-1400.49,0,0
85494.2,55.1604,-1375.93,0,0
86795.825,56.1739,-1352.58,0,0
88097.45,56.5529,-1329.4,0,0
89399.075,57.8665,-1304.95,0,0
90700.7,61.626,-1281.28,0,0
92002.3,68.2723,-1260.2,0,0
93303.9,75.5109,-1243.42,0,0
94605.6,73.6864,-1235.98,0,0
95907.2,67.2509,-1217.55,0,0
97208.8,64.7402,-1196.95,0,0
98510.4,64.4358,-1176.53,0,0
99812.1,63.3249,-1156.27,0,0
101114,63.7251,-1136.45,0,0
102415,63.3272,-1114.73,0,0
103717,68.2784,-1093.38,0,0
105019,75.1153,-1075.72,0,0
106320.175,81.7292,-1059.67,0,0
107621.8,88.4392,-1047.22,0,0
108923.425,93.1132,-1036.62,0,0
110225.05,94.285,-1028.34,0,0
111526.675,94.7124,-1015.95,0,0
112828.3,96.6097,-1006.62,0,0
114129.925,95.56,-998.755,0,0
115431.55,91.3576,-989.008,0,0
116733.175,86.4447,-976.295,0,0
118034.8,82.6237,-961.357,0,0
119336.425,81.4313,-945.794,0,0
120638.05,82.0914,-931.751,0,0
121939.675,80.9287,-919.131,0,0
123241,79.419,-904.885,0,0
124543,79.1629,-889.743,0,0
125845,79.8135,-874.988,0,0
127146,80.9677,-860.599,0,0
128448,83.107,-845.787,0,0
129749,86.049,-831.422,0,0
131051,91.1835,-818.634,0,0
132353,95.2258,-808.054,0,0
133654,98.3526,-797.846,0,0
134956,100.491,-787.382,0,0
136258,103.744,-776.344,0,0
137559,108.127,-766.433,0,0
138860.775,110.665,-760.666,0,0
140162.4,110.011,-752.246,0,0
141464.025,110.027,-741.795,0,0
142765.65,110.835,-730.825,0,0
144067.275,111.965,-719.795,0,0
145368.9,114.305,-708.483,0,0
146670.525,117.059,-697.649,0,0
147972.15,119.608,-688.279,0,0
149273.775,121.866,-678.856,0,0
150575.4,122.949,-669.785,0,0
151877.025,121.988,-658.223,0,0
153178.65,122.477,-643.101,0,0
154480,126.352,-626.903,0,0
155782,134.039,-610.274,0,0
157084,145.939,-595.285,0,0
158385,158.539,-585.742,0,0
159687,169.281,-575.232,0,0
160988,186.755,-565.26,0,0
162290,204.157,-564.687,0,0
163592,218.106,-565.509,0,0
164893,230.325,-568.439,0,0
166195,243.52,-576.2,0,0
167497,248.167,-589.268,0,0
168798,244.677,-599.715,0,0
170100,236.657,-604.219,0,0
171401.375,229.46,-603.198,0,0
172703.0,222.967,-599.544,0,0
174004.625,219.104,-592.209,0,0
175306.25,219.642,-585.743,0,0
176607.875,219.997,-583.76,0,0
177909.5,217.677,-581.089,0,0
179211.125,214.15,-578.246,0,0
180512.75,207.993,-575.673,0,0
181814.375,199.79,-566.547,0,0
183116.0,193.404,-556.365,0,0
184417.625,188.502,-541.218,0,0
185719.25,188.055,-525.679,0,0
187021,189.604,-511.024,0,0
188322,191.454,-496.491,0,0
189624,194.974,-480.147,0,0
190926,201.025,-464.466,0,0
192227,207.767,-448.308,0,0
193529,216.153,-432.253,0,0
194831,226.219,-415.329,0,0
196132,239.038,-397.487,0,0
197434,255.815,-378.983,0,0
198735,276.905,-363.62,0,0
200037,297.574,-348.996,0,0
201339,324.383,-331.367,0,0
202640.35,360.884,-317.827,0,0
203941.975,404.231,-312.043,0,0
205243.6,456.299,-320.953,0,0
206545.225,499.786,-350.261,0,0
207846.85,527.66,-389.8,0,0
209148.475,540.978,-428.946,0,0
210450.1,538.334,-462.012,0,0
211751.725,530.747,-480.893,0,0
213053.35,530.834,-485.952,0,0
214354.975,540.594,-496.72,0,0
215656.6,550.202,-509.581,0,0
216958.225,559.119,-521.781,0,0
218259.85,576.727,-536.363,0,0
219561,592.378,-556.298,0,0
220863,611.691,-582.352,0,0
222165,629.254,-621.465,0,0
223466,634.401,-670.409,0,0
224768,626.169,-720.19,0,0
226070,607.232,-770.825,0,0
227371,572.294,-815.382,0,0
228673,526.398,-847.73,0,0
229974,478.426,-863.456,0,0
231276,434.167,-866.613,0,0
232578,398.856,-861.875,0,0
233879,370.054,-857.371,0,0
235180.95,343.56,-851.061,0,0
236482.575,319.692,-844.903,0,0
237784.2,297.737,-837.69,0,0
239085.825,275.892,-830.039,0,0
240387.45,254.953,-818.583,0,0
241689.075,238.321,-806.342,0,0
242990.7,223.64,-793.828,0,0
244292.325,211.355,-782.045,0,0
245593.95,199.335,-770.737,0,0
246895.575,187.86,-759.218,0,0
248197.2,177.893,-746.378,0,0
249498.825,169.777,-733.808,0,0
250800,162.727,-721.728,0,0
252102,156.158,-709.499,0,0
253404,150.649,-696.91,0,0
254705,146.641,-683.69,0,0
256007,144.739,-671.334,0,0
257309,143.375,-659.729,0,0
258610,143.155,-647.832,0,0
259912,145.369,-636.366,0,0
261213,149.417,-626.857,0,0
262515,154.149,-619.761,0,0
263817,159.588,-613.761,0,0
265118,166.543,-610.815,0,0
266420,172.711,-612.662,0,0
267721.55,174.483,-618.897,0,0
269023.175,168.645,-624.966,0,0
270324.8,158.334,-625.052,0,0
271626.425,149.418,-619.232,0,0
272928.05,143.922,-610.952,0,0
274229.675,141.594,-602.332,0,0
275531.3,141.268,-594.81,0,0
276832.925,142.372,-587.958,0,0
278134.55,145.062,-583.48,0,0
279436.175,147.076,-581.247,0,0
280737.8,147.278,-580.484,0,0
282039.425,145.779,-579.558,0,0
283341,142.958,-577.936,0,0
284643,139.827,-574.966,0,0
285944,136.237,-571.43,0,0
287246,132.113,-566.298,0,0
288548,129.615,-557.772,0,0
289849,131.921,-549.733,0,0
291151,135.249,-545.961,0,0
292452,135.76,-543.673,0,0
293754,134.48,-539.643,0,0
295056,134.443,-532.943,0,0
296357,137.583,-525.971,0,0
297659,142.47,-521.279,0,0
298960.525,147.927,-517.815,0,0
300262.15,153.452,-516.29,0,0
301563.775,158.679,-514.977,0,0
302865.4,165.66,-515.748,0,0
304167.025,171.324,-519.298,0,0
305468.65,174.856,-523.974,0,0
306770.275,178,-529.327,0,0
308071.9,179.191,-536.148,0,0
309373.525,177.829,-543.233,0,0
310675.15,175.287,-549.464,0,0
311976.775,170.768,-556.304,0,0
313278.4,163.707,-561.299,0,0
314580,155.973,-564.069,0,0
315882,148.684,-565.526,0,0
317183,140.726,-566.244,0,0
318485,132.589,-565.037,0,0
319787,125.03,-562.989,0,0
321088,117.756,-559.368,0,0
322390,111.337,-554.769,0,0
323691,106.369,-549.06,0,0
324993,103.223,-543.315,0,0
326295,101.44,-538.403,0,0
327596,100.323,-534.566,0,0
328898,99.1855,-531.721,0,0
330200,97.7346,-529.771,0,0
331501.125,95.6146,-528.251,0,0
332802.75,92.5005,-526.799,0,0
334104.375,88.8924,-524.735,0,0
335406.0,85.0201,-522.101,0,0
336707.625,81.2577,-518.719,0,0
338009.25,77.8518,-514.849,0,0
339310.875,74.8237,-510.813,0,0
340612.5,71.9966,-506.542,0,0
341914.125,69.7246,-502.261,0,0
343215.75,67.7239,-498.146,0,0
344517.375,65.644,-494.044,0,0
345819.0,63.5631,-489.741,0,0
347121,61.767,-485.223,0,0
348422,60.3082,-480.517,0,0
349724,59.273,-475.758,0,0
351025,58.7443,-471.143,0,0
352327,58.3481,-466.985,0,0
353629,57.9059,-462.963,0,0
354930,57.4879,-458.806,0,0
356232,57.3936,-454.612,0,0
357534,57.6569,-450.676,0,0
358835,57.891,-447.134,0,0
360137,58.0676,-443.428,0,0
361438,58.4276,-439.976,0,0
362740.1,58.598,-436.72,0,0
364041.725,58.8853,-433.314,0,0
365343.35,59.1539,-429.766,0,0
366644.975,59.5012,-426.246,0,0
367946.6,59.7822,-422.472,0,0
369248.225,60.5503,-417.887,0,0
370549.85,62.8578,-413.39,0,0
371851.475,65.9972,-409.988,0,0
373153.1,69.4408,-407.565,0,0
374454.725,72.7486,-406.475,0,0
375756.35,75.2101,-406.186,0,0
377057.975,77.0036,-405.716,0,0
378359.6,78.8529,-405.522,0,0
379661,80.2713,-405.605,0,0
380963,81.7675,-405.832,0,0
382264,83.2552,-407.264,0,0
383566,83.0577,-409.587,0,0
384868,81.1767,-411.366,0,0
386169,78.6403,-411.888,0,0
387471,75.5769,-411.675,0,0
388773,72.715,-409.929,0,0
390074,70.9367,-407.749,0,0
391376,69.679,-406.021,0,0
392677,68.1918,-404.598,0,0
393979,66.0686,-403.142,0,0
395280.7,63.6643,-400.842,0,0
396582.325,61.5471,-397.852,0,0
397883.95,59.958,-394.5,0,0
399185.575,58.7148,-390.968,0,0
400006.6,58.1663,-388.689,0,0