File: Accelerated corrosion test data/2025-10-06_06-00-03/sample_4.csv
Frequency (Hz),Impedance (ohms),Phase (Radians),Temperature (C),Humidity (%)
10000.0,263.786,-11841.9,0,0
11301.625,234.587,-10491.4,0,0
12603.25,212.734,-9411.79,0,0
13904.875,193.324,-8534.4,0,0
15206.5,182.276,-7811.29,0,0
16508.125,186.426,-7195.81,0,0
17809.75,155.446,-6691.99,0,0
19111.375,145.272,-6237,0,0
20413.0,141.354,-5837.72,0,0
21714.625,145.337,-5492.27,0,0
23016.25,125.62,-5193.97,0,0
24317.875,115.844,-4910.08,0,0
25619.5,112.429,-4657.36,0,0
26921.1,107.021,-4428.66,0,0
28222.7,119.908,-4223.66,0,0
29524.4,112.134,-4047.34,0,0
30826,98.7951,-3875.29,0,0
32127.6,99.4412,-3715.9,0,0
33429.2,90.1631,-3575.71,0,0
34730.9,85.1925,-3437.67,0,0
36032.5,82.0623,-3310.28,0,0
37334.1,80.0986,-3192.11,0,0
38635.7,77.3303,-3080.44,0,0
39937.4,77.0974,-2975.12,0,0
41239,79.2131,-2880.76,0,0
42540.6,78.8025,-2793.25,0,0
43842.225,73.7473,-2709.84,0,0
45143.85,71.4667,-2628.96,0,0
46445.475,70.8362,-2552.31,0,0
47747.1,69.9537,-2482.1,0,0
49048.725,66.4721,-2413.61,0,0
50350.35,64.6598,-2346.24,0,0
51651.975,63.9351,-2281.51,0,0
52953.6,65.8608,-2218.77,0,0
54255.225,73.9631,-2162.76,0,0
55556.85,72.1429,-2119.38,0,0
56858.475,65.9579,-2066.16,0,0
58160.1,66.7219,-2013.84,0,0
59461.7,71.1346,-1963.1,0,0
60763.3,80.301,-1925.7,0,0
62065,69.9788,-1892.66,0,0
63366.6,64.4152,-1847.05,0,0
64668.2,64.5469,-1803.65,0,0
65969.8,66.6411,-1763.44,0,0
67271.5,70.6186,-1727.35,0,0
68573.1,73.7135,-1698.6,0,0
69874.7,66.2977,-1668.27,0,0
71176.3,65.2385,-1634.48,0,0
72478,59.3871,-1603.08,0,0
73779.6,57.8281,-1566.71,0,0
75081.2,59.9339,-1534.02,0,0
76382.825,62.3119,-1505.27,0,0
77684.45,65.0157,-1477.77,0,0
78986.075,63.9285,-1455.08,0,0
80287.7,60.9363,-1428.37,0,0
81589.325,60.3162,-1402.39,0,0
82890.95,59.0616,-1377.34,0,0
84192.575,57.9232,-1352.54,0,0
85494.2,57.0931,-1328.33,0,0
86795.825,56.4507,-1304.8,0,0
88097.45,55.2013,-1282.38,0,0
89399.075,53.6176,-1258.09,0,0
90700.7,53.5483,-1234.97,0,0
92002.3,53.8131,-1211.98,0,0
93303.9,55.0498,-1191.28,0,0
94605.6,53.7482,-1170.93,0,0
95907.2,53.038,-1148.39,0,0
97208.8,54.0314,-1126.81,0,0
98510.4,55.3252,-1105.51,0,0
99812.1,57.9309,-1084.74,0,0
101114,62.2139,-1066.38,0,0
102415,61.2639,-1052.02,0,0
103717,58.2739,-1029.48,0,0
105019,62.1033,-1005.88,0,0
106320.175,68.5764,-985.667,0,0
107621.8,75.2432,-967.85,0,0
108923.425,83.4206,-951.11,0,0
110225.05,91.3779,-938.319,0,0
111526.675,97.5964,-927.237,0,0
112828.3,102.914,-917.438,0,0
114129.925,106.542,-908.783,0,0
115431.55,108.539,-900.816,0,0
116733.175,107.986,-892.706,0,0
118034.8,105.753,-882.114,0,0
119336.425,106.744,-868.215,0,0
120638.05,111.573,-862.917,0,0
121939.675,104.73,-856.649,0,0
123241,99.7969,-844.32,0,0
124543,96.6461,-831.782,0,0
125845,94.2837,-819.253,0,0
127146,90.9748,-808.201,0,0
128448,86.3353,-796.03,0,0
129749,80.068,-781.163,0,0
131051,75.5589,-763.59,0,0
132353,73.17,-745.001,0,0
133654,72.4209,-726.17,0,0
134956,73.1718,-707.307,0,0
136258,75.4115,-689.016,0,0
137559,78.2144,-671.768,0,0
138860.775,80.0345,-654.123,0,0
140162.4,83.3397,-635.216,0,0
141464.025,88.3642,-616.274,0,0
142765.65,94.3203,-598.069,0,0
144067.275,101.011,-579.7,0,0
145368.9,108.824,-561.211,0,0
146670.525,118.284,-542.628,0,0
147972.15,129.265,-524.681,0,0
149273.775,141.849,-506.532,0,0
150575.4,157.068,-488.805,0,0
151877.025,175.963,-472.981,0,0
153178.65,197.815,-461.241,0,0
154480,218.958,-456.277,0,0
155782,235.913,-452.515,0,0
157084,250.973,-450.408,0,0
158385,265.697,-444.431,0,0
159687,286.888,-441.68,0,0
160988,304.524,-449.703,0,0
162290,310.863,-456.37,0,0
163592,315.784,-454.82,0,0
164893,325.94,-448.1,0,0
166195,341.929,-443.22,0,0
167497,367.744,-442.086,0,0
168798,395.29,-459.745,0,0
170100,410.413,-489.183,0,0
171401.375,405.987,-526.869,0,0
172703.0,380.521,-550.943,0,0
174004.625,347.295,-555.764,0,0
175306.25,320.311,-543.522,0,0
176607.875,303.221,-522.226,0,0
177909.5,296.942,-498.891,0,0
179211.125,296.649,-478.389,0,0
180512.75,299.934,-459.677,0,0
181814.375,303.978,-442.894,0,0
183116.0,307.22,-425.51,0,0
184417.625,311.969,-404.359,0,0
185719.25,320.742,-380.602,0,0
187021,334.611,-355.141,0,0
188322,353.995,-328.691,0,0
189624,380.393,-302.244,0,0
190926,415.591,-277.548,0,0
192227,459.059,-258.517,0,0
193529,509.566,-247.7,0,0
194831,563.652,-246.026,0,0
196132,620.623,-253.042,0,0
197434,683.014,-268.949,0,0
198735,750.34,-303.07,0,0
200037,812.275,-361.394,0,0
201339,853.281,-439.467,0,0
202640.35,867.409,-523.257,0,0
203941.975,861.276,-597.201,0,0
205243.6,844.244,-664.808,0,0
206545.225,817.107,-724.088,0,0
207846.85,783.453,-781.353,0,0
209148.475,729.804,-826.547,0,0
210450.1,674.966,-846.926,0,0
211751.725,628.418,-853.868,0,0
213053.35,592.071,-851.36,0,0
214354.975,566.998,-845.521,0,0
215656.6,552.916,-847.078,0,0
216958.225,535.224,-856.154,0,0
218259.85,514.284,-863.008,0,0
219561,493.69,-869.227,0,0
220863,472.141,-876.319,0,0
222165,447.719,-881.106,0,0
223466,423.764,-882.542,0,0
224768,400.371,-884.081,0,0
226070,374.116,-885.02,0,0
227371,345.286,-880.431,0,0
228673,317.061,-870.518,0,0
229974,292.585,-854.046,0,0
231276,274.81,-835.461,0,0
232578,261.127,-817.754,0,0
233879,250.946,-800.287,0,0
235180.95,243.552,-784.446,0,0
236482.575,238.113,-770.649,0,0
237784.2,233.39,-756.741,0,0
239085.825,231.933,-744.682,0,0
240387.45,230.792,-735.871,0,0
241689.075,228.584,-729.257,0,0
242990.7,224.94,-723.602,0,0
244292.325,219.643,-717.891,0,0
245593.95,212.766,-710.428,0,0
246895.575,206.992,-700.56,0,0
248197.2,204.09,-690.454,0,0
249498.825,201.498,-682.544,0,0
250800,198.346,-674.617,0,0
252102,194.171,-667.235,0,0
253404,187.382,-657.315,0,0
254705,182.976,-643.086,0,0
256007,181.117,-626.567,0,0
257309,184.578,-608.264,0,0
258610,193.096,-590.715,0,0
259912,207.92,-575.438,0,0
261213,227.327,-566.62,0,0
262515,247.482,-564.948,0,0
263817,268.24,-569.532,0,0
265118,285.623,-581.028,0,0
266420,298.679,-598.919,0,0
267721.55,301.832,-621.328,0,0
269023.175,297.764,-641.422,0,0
270324.8,284.113,-658.076,0,0
271626.425,271.353,-663.459,0,0
272928.05,263.061,-670.807,0,0
274229.675,251.192,-679.108,0,0
275531.3,233.861,-685.852,0,0
276832.925,212.71,-684.725,0,0
278134.55,194.223,-674.866,0,0
279436.175,183.783,-659.564,0,0
280737.8,181.921,-647.29,0,0
282039.425,180.384,-640.496,0,0
283341,178.953,-632.55,0,0
284643,179.715,-629.172,0,0
285944,177.222,-627.041,0,0
287246,171.004,-623.52,0,0
288548,165.558,-613.978,0,0
289849,166.791,-600.583,0,0
291151,177.186,-591.659,0,0
292452,189.373,-592.394,0,0
293754,198.011,-600.917,0,0
295056,198.429,-614.095,0,0
296357,189.831,-624.757,0,0
297659,177.997,-628.515,0,0
298960.525,167.88,-627.733,0,0
300262.15,159.438,-625.901,0,0
301563.775,151.187,-623.304,0,0
302865.4,143.508,-618.854,0,0
304167.025,136.962,-613.792,0,0
305468.65,131.677,-607.816,0,0
306770.275,127.968,-601.669,0,0
308071.9,125.861,-596.47,0,0
309373.525,123.747,-592.738,0,0
310675.15,120.961,-589.521,0,0
311976.775,117.457,-585.837,0,0
313278.4,114.331,-581.418,0,0
314580,112.161,-576.726,0,0
315882,110.858,-572.827,0,0
317183,109.688,-569.799,0,0
318485,108.076,-567.96,0,0
319787,105.702,-566.758,0,0
321088,101.604,-565.752,0,0
322390,95.4995,-563.85,0,0
323691,88.5168,-558.695,0,0
324993,84.0716,-551.421,0,0
326295,81.2949,-544.753,0,0
327596,78.9424,-538.113,0,0
328898,77.2228,-531.05,0,0
330200,77.1142,-523.912,0,0
331501.125,78.518,-518.18,0,0
332802.75,79.7736,-514.274,0,0
334104.375,79.8194,-511.418,0,0
335406.0,78.5926,-508.213,0,0
336707.625,76.7289,-504.149,0,0
338009.25,75.22,-498.55,0,0
339310.875,75.0647,-492.265,0,0
340612.5,76.3636,-486.003,0,0
341914.125,79.4289,-480.326,0,0
343215.75,83.9519,-476.962,0,0
344517.375,87.6526,-476.382,0,0
345819.0,89.2253,-476.909,0,0
347121,88.9614,-477.332,0,0
348422,87.6962,-476.974,0,0
349724,85.6318,-475.69,0,0
351025,83.5613,-473.375,0,0
352327,81.6186,-470.304,0,0
353629,80.5189,-466.385,0,0
354930,80.8416,-462.641,0,0
356232,81.1446,-460.352,0,0
357534,80.6698,-458.381,0,0
358835,79.2278,-456.022,0,0
360137,77.7833,-451.994,0,0
361438,77.6811,-447.688,0,0
362740.1,78.4205,-443.653,0,0
364041.725,79.5178,-440.675,0,0
365343.35,79.6842,-437.924,0,0
366644.975,79.7075,-433.94,0,0
367946.6,81.0536,-429.203,0,0
369248.225,84.0725,-424.796,0,0
370549.85,88.5953,-421.554,0,0
371851.475,93.9337,-420.518,0,0
373153.1,98.7402,-422.46,0,0
374454.725,100.526,-426.052,0,0
375756.35,99.9075,-428.545,0,0
377057.975,98.7789,-429.787,0,0
378359.6,97.6725,-430.461,0,0
379661,96.2406,-430.801,0,0
380963,94.7249,-430.889,0,0
382264,93.2422,-429.948,0,0
383566,93.6348,-430.079,0,0
384868,92.1299,-432.641,0,0
386169,87.46,-434.068,0,0
387471,81.8457,-432.478,0,0
388773,77.8592,-428.181,0,0
390074,76.9043,-423.708,0,0
391376,77.6969,-421.563,0,0
392677,76.7973,-422.132,0,0
393979,72.942,-422.045,0,0
395280.7,68.4041,-419.452,0,0
396582.325,64.8191,-415.185,0,0
397883.95,62.4641,-410.514,0,0
399185.575,60.7835,-405.736,0,0
400006.6,60.0623,-402.603,0,0