File: Accelerated corrosion test data/2025-10-06_06-00-03/sample_2.csv
Frequency (Hz),Impedance (ohms),Phase (Radians),Temperature (C),Humidity (%)
10000.0,231.488,-11370.5,0,0
11301.625,205.696,-10070.2,0,0
12603.25,185.377,-9041.25,0,0
13904.875,186.154,-8196.64,0,0
15206.5,168.502,-7508.14,0,0
16508.125,144.421,-6921.8,0,0
17809.75,134.4,-6416.61,0,0
19111.375,129.517,-5979.29,0,0
20413.0,118.925,-5598.23,0,0
21714.625,128.38,-5269.13,0,0
23016.25,112.315,-4976.32,0,0
24317.875,103.964,-4711.87,0,0
25619.5,97.7258,-4469.67,0,0
26921.1,95.346,-4252.34,0,0
28222.7,90.7734,-4053.52,0,0
29524.4,92.5991,-3870.71,0,0
30826,88.1708,-3717.96,0,0
32127.6,82.189,-3564.7,0,0
33429.2,79.7818,-3426.83,0,0
34730.9,76.1003,-3296.69,0,0
36032.5,73.4692,-3175.8,0,0
37334.1,71.0128,-3063.33,0,0
38635.7,68.938,-2958.55,0,0
39937.4,66.9646,-2860.23,0,0
41239,65.6978,-2767.93,0,0
42540.6,64.7508,-2681.84,0,0
43842.225,63.2909,-2599.94,0,0
45143.85,62.0058,-2522.73,0,0
46445.475,61.3724,-2450.6,0,0
47747.1,60.7979,-2381.79,0,0
49048.725,60.4592,-2318.05,0,0
50350.35,58.0302,-2256.39,0,0
51651.975,56.6383,-2197.55,0,0
52953.6,55.1885,-2140.57,0,0
54255.225,54.3738,-2086.22,0,0
55556.85,54.0332,-2034.44,0,0
56858.475,53.7905,-1984.85,0,0
58160.1,54.2233,-1937.91,0,0
59461.7,54.6124,-1892.1,0,0
60763.3,56.314,-1849.96,0,0
62065,58.7581,-1811.54,0,0
63366.6,56.0222,-1775.32,0,0
64668.2,52.6571,-1737.3,0,0
65969.8,50.7889,-1698.43,0,0
67271.5,51.2429,-1660.81,0,0
68573.1,53.6711,-1627.32,0,0
69874.7,55.7259,-1596.81,0,0
71176.3,52.4285,-1569.02,0,0
72478,47.7709,-1538.69,0,0
73779.6,45.2781,-1506.02,0,0
75081.2,45.3252,-1473.92,0,0
76382.825,46.9773,-1443.59,0,0
77684.45,49.7357,-1415.55,0,0
78986.075,52.8817,-1391.31,0,0
80287.7,51.8859,-1369.94,0,0
81589.325,49.1798,-1345.04,0,0
82890.95,48.0246,-1319.54,0,0
84192.575,48.8486,-1294.81,0,0
85494.2,49.6643,-1271.48,0,0
86795.825,50.4511,-1249.58,0,0
88097.45,51.1733,-1228.68,0,0
89399.075,51.1149,-1207.06,0,0
90700.7,51.5918,-1186.94,0,0
92002.3,52.9998,-1165.98,0,0
93303.9,55.582,-1147.03,0,0
94605.6,55.122,-1130.84,0,0
95907.2,54.699,-1111.42,0,0
97208.8,57.7046,-1094.59,0,0
98510.4,57.7903,-1080.93,0,0
99812.1,53.4359,-1066.59,0,0
101114,50.3502,-1048.1,0,0
102415,47.0732,-1028.39,0,0
103717,46.3733,-1007.73,0,0
105019,49.7158,-987.144,0,0
106320.175,54.5284,-970.579,0,0
107621.8,57.5914,-958.418,0,0
108923.425,56.3962,-946.53,0,0
110225.05,53.1166,-931.312,0,0
111526.675,52.1556,-913.583,0,0
112828.3,52.573,-896.429,0,0
114129.925,54.1989,-879.405,0,0
115431.55,57.0061,-863.21,0,0
116733.175,60.4245,-848.02,0,0
118034.8,64.3175,-834.295,0,0
119336.425,68.0136,-822.282,0,0
120638.05,70.1492,-812.198,0,0
121939.675,69.2396,-801.106,0,0
123241,68.3534,-788.374,0,0
124543,67.7444,-774.783,0,0
125845,67.5447,-759.949,0,0
127146,68.9075,-744.784,0,0
128448,71.5031,-730.32,0,0
129749,74.2072,-717.054,0,0
131051,76.5444,-704.109,0,0
132353,78.2108,-691.589,0,0
133654,79.4816,-677.755,0,0
134956,81.1366,-663.529,0,0
136258,83.5995,-648.786,0,0
137559,86.8091,-633.779,0,0
138860.775,89.9335,-619.13,0,0
140162.4,93.1207,-602.891,0,0
141464.025,98.7027,-584.3,0,0
142765.65,108.093,-566.316,0,0
144067.275,119.35,-551.263,0,0
145368.9,130.717,-536.612,0,0
146670.525,143.516,-522.811,0,0
147972.15,159.278,-508.773,0,0
149273.775,179.74,-496.404,0,0
150575.4,207.233,-493.669,0,0
151877.025,228.757,-505.306,0,0
153178.65,236.162,-521.463,0,0
154480,233.314,-531.182,0,0
155782,228.172,-533.787,0,0
157084,223.383,-532.138,0,0
158385,219.922,-525.639,0,0
159687,219.019,-519.226,0,0
160988,220.61,-511.874,0,0
162290,227.789,-507.622,0,0
163592,225.107,-514.187,0,0
164893,211.655,-512.306,0,0
166195,197.94,-499.059,0,0
167497,190.612,-478.846,0,0
168798,188.068,-456.459,0,0
170100,190.454,-435.247,0,0
171401.375,194.468,-412.136,0,0
172703.0,203.207,-387.88,0,0
174004.625,216.2,-363.358,0,0
175306.25,236.454,-339.267,0,0
176607.875,261.5,-321.993,0,0
177909.5,291.109,-311.652,0,0
179211.125,310.696,-312.953,0,0
180512.75,320.396,-312.194,0,0
181814.375,325.546,-295.888,0,0
183116.0,341.929,-273.292,0,0
184417.625,368.639,-248.968,0,0
185719.25,405.893,-230.189,0,0
187021,446.831,-221.834,0,0
188322,490.118,-216.332,0,0
189624,530.581,-216.988,0,0
190926,575.318,-215.078,0,0
192227,634.647,-217.884,0,0
193529,704.829,-240.563,0,0
194831,764.589,-287.762,0,0
196132,814.669,-347.95,0,0
197434,851.022,-414.487,0,0
198735,875.689,-489.87,0,0
200037,880.478,-570.866,0,0
201339,872.361,-655.226,0,0
202640.35,836.367,-735.12,0,0
203941.975,781.969,-790.398,0,0
205243.6,730.85,-829.629,0,0
206545.225,672.231,-855.351,0,0
207846.85,624.029,-865.013,0,0
209148.475,586.742,-870.373,0,0
210450.1,548.615,-881.454,0,0
211751.725,504.153,-883.175,0,0
213053.35,466.862,-873.255,0,0
214354.975,436.174,-859.36,0,0
215656.6,413.212,-845.048,0,0
216958.225,394.181,-829.948,0,0
218259.85,380.743,-814.746,0,0
219561,371.635,-801.699,0,0
220863,364.905,-791.534,0,0
222165,361.232,-781.456,0,0
223466,361.349,-776.895,0,0
224768,359.034,-776.867,0,0
226070,354.533,-777.216,0,0
227371,352.288,-778.525,0,0
228673,349.634,-784.554,0,0
229974,341.546,-794.952,0,0
231276,327.143,-803.342,0,0
232578,310.064,-807.787,0,0
233879,291.881,-808.94,0,0
235180.95,274.606,-807.478,0,0
236482.575,256.743,-804.197,0,0
237784.2,239.344,-798.316,0,0
239085.825,223.631,-789.596,0,0
240387.45,210.129,-779.633,0,0
241689.075,198.68,-769.501,0,0
242990.7,189.042,-759.468,0,0
244292.325,180.604,-750.949,0,0
245593.95,171.914,-743.323,0,0
246895.575,160.662,-736.498,0,0
248197.2,147.71,-725.386,0,0
249498.825,137.146,-711.381,0,0
250800,129.014,-695.658,0,0
252102,123.9,-679.186,0,0
253404,121.524,-662.947,0,0
254705,120.959,-647.785,0,0
256007,122.224,-632.203,0,0
257309,126.728,-618.099,0,0
258610,132.667,-606.245,0,0
259912,139.631,-595.733,0,0
261213,148.634,-587.462,0,0
262515,158.128,-582.948,0,0
263817,166.634,-580.894,0,0
265118,173.535,-582.229,0,0
266420,176.371,-583.906,0,0
267721.55,178.672,-584.313,0,0
269023.175,178.809,-584.779,0,0
270324.8,178.405,-581.715,0,0
271626.425,181.682,-576.457,0,0
272928.05,188.635,-573.132,0,0
274229.675,200.032,-572.784,0,0
275531.3,212.773,-582.101,0,0
276832.925,217.195,-600.463,0,0
278134.55,209.457,-616.784,0,0
279436.175,197.542,-626.722,0,0
280737.8,184.706,-631.963,0,0
282039.425,171.487,-634.795,0,0
283341,156.145,-633.715,0,0
284643,144.641,-627.681,0,0
285944,132.866,-623.059,0,0
287246,119.608,-612.393,0,0
288548,111.878,-595.065,0,0
289849,114.673,-575.634,0,0
291151,127.32,-564.007,0,0
292452,141.267,-564.05,0,0
293754,146.633,-572.717,0,0
295056,143.507,-576.604,0,0
296357,146.032,-577.553,0,0
297659,144.555,-586.851,0,0
298960.525,135.78,-591.738,0,0
300262.15,126.691,-592.574,0,0
301563.775,118.422,-589.66,0,0
302865.4,114.332,-585.886,0,0
304167.025,110.647,-586.065,0,0
305468.65,103.09,-586.464,0,0
306770.275,94.0387,-583.483,0,0
308071.9,86.4595,-577.974,0,0
309373.525,80.4038,-571.902,0,0
310675.15,75.2948,-565.554,0,0
311976.775,71.067,-558.719,0,0
313278.4,68.0433,-552.111,0,0
314580,65.359,-545.963,0,0
315882,63.0347,-539.802,0,0
317183,61.1265,-533.451,0,0
318485,60.1292,-527.536,0,0
319787,59.2443,-522.101,0,0
321088,58.2457,-516.985,0,0
322390,57.3054,-511.628,0,0
323691,56.29,-506.162,0,0
324993,56.0213,-499.587,0,0
326295,58.1861,-493.207,0,0
327596,61.3455,-489.34,0,0
328898,63.3297,-487.093,0,0
330200,64.8475,-485.36,0,0
331501.125,65.5453,-484.566,0,0
332802.75,64.756,-484.132,0,0
334104.375,62.4632,-482.779,0,0
335406.0,60.0104,-479.964,0,0
336707.625,58.1038,-476.581,0,0
338009.25,56.4446,-472.727,0,0
339310.875,55.1603,-468.525,0,0
340612.5,54.4103,-464.236,0,0
341914.125,54.038,-459.926,0,0
343215.75,54.0272,-455.638,0,0
344517.375,54.4829,-451.33,0,0
345819.0,55.3737,-447.296,0,0
347121,56.5462,-443.617,0,0
348422,57.9033,-440.298,0,0
349724,59.5024,-437.293,0,0
351025,61.2653,-434.95,0,0
352327,62.5848,-433.058,0,0
353629,63.6834,-431.018,0,0
354930,64.9023,-429.186,0,0
356232,66.0418,-427.486,0,0
357534,67.3882,-425.827,0,0
358835,69.0271,-424.735,0,0
360137,70.4371,-424.625,0,0
361438,70.8079,-424.89,0,0
362740.1,70.6802,-425.028,0,0
364041.725,69.9172,-425.05,0,0
365343.35,68.6919,-424.601,0,0
366644.975,67.2622,-423.471,0,0
367946.6,66.3705,-421.714,0,0
369248.225,66.1499,-420.391,0,0
370549.85,65.6424,-419.942,0,0
371851.475,64.3629,-419.123,0,0
373153.1,63.1143,-417.86,0,0
374454.725,61.906,-416.801,0,0
375756.35,60.4252,-415.601,0,0
377057.975,58.96,-414.173,0,0
378359.6,57.4315,-413.089,0,0
379661,54.6642,-411.742,0,0
380963,52.2464,-408.055,0,0
382264,52.1333,-405.229,0,0
383566,51.1301,-403.696,0,0
384868,49.3139,-401.675,0,0
386169,47.4843,-399.001,0,0
387471,45.8626,-395.791,0,0
388773,44.895,-392.24,0,0
390074,44.6889,-388.723,0,0
391376,44.9239,-386.095,0,0
392677,44.406,-384.391,0,0
393979,42.8575,-382.018,0,0
395280.7,41.405,-378.595,0,0
396582.325,40.6518,-374.624,0,0
397883.95,40.6735,-370.665,0,0
399185.575,41.1702,-367.011,0,0
400006.6,41.567,-364.905,0,0