File: Accelerated corrosion test data/2025-10-06_06-00-03/sample_6.csv
Frequency (Hz),Impedance (ohms),Phase (Radians),Temperature (C),Humidity (%)
10000.0,4255.04,-6507.94,0,0
11301.625,3625.96,-6138.9,0,0
12603.25,3124.17,-5782.8,0,0
13904.875,2717.28,-5455.92,0,0
15206.5,2383.71,-5148.78,0,0
16508.125,2108.37,-4868.08,0,0
17809.75,1877.89,-4611.43,0,0
19111.375,1687.02,-4374.32,0,0
20413.0,1520.39,-4160.49,0,0
21714.625,1378.35,-3961.68,0,0
23016.25,1261.26,-3773.95,0,0
24317.875,1154.65,-3615.01,0,0
25619.5,1060.81,-3460.29,0,0
26921.1,978.713,-3315.38,0,0
28222.7,908.773,-3183.45,0,0
29524.4,843.908,-3057.58,0,0
30826,789.613,-2943.25,0,0
32127.6,739.954,-2832.83,0,0
33429.2,702.043,-2732.87,0,0
34730.9,661.719,-2646.3,0,0
36032.5,624.204,-2563.95,0,0
37334.1,586.299,-2482.59,0,0
38635.7,552.572,-2402.63,0,0
39937.4,525.19,-2326.48,0,0
41239,500.205,-2256.79,0,0
42540.6,477.344,-2191.75,0,0
43842.225,457.008,-2124.81,0,0
45143.85,441.427,-2062.81,0,0
46445.475,431.595,-2008.31,0,0
47747.1,420.539,-1960.01,0,0
49048.725,409.621,-1919.86,0,0
50350.35,389.026,-1884.3,0,0
51651.975,365.605,-1839.66,0,0
52953.6,349.019,-1794.74,0,0
54255.225,331.523,-1753,0,0
55556.85,315.412,-1710.84,0,0
56858.475,303.089,-1664.55,0,0
58160.1,298.379,-1626.26,0,0
59461.7,288.863,-1593.68,0,0
60763.3,276.351,-1560.32,0,0
62065,263.662,-1524.41,0,0
63366.6,259.837,-1486.31,0,0
64668.2,253.804,-1461.16,0,0
65969.8,244.763,-1431.07,0,0
67271.5,233.65,-1402.33,0,0
68573.1,224.447,-1369.2,0,0
69874.7,218.144,-1336.64,0,0
71176.3,215.604,-1304.98,0,0
72478,215.398,-1276.48,0,0
73779.6,215.797,-1251.99,0,0
75081.2,214.371,-1228.92,0,0
76382.825,213.188,-1207.14,0,0
77684.45,211.768,-1186.35,0,0
78986.075,209.758,-1167.22,0,0
80287.7,206.751,-1148.74,0,0
81589.325,202.807,-1130.4,0,0
82890.95,198.316,-1111.6,0,0
84192.575,193.673,-1091.91,0,0
85494.2,190.84,-1071.01,0,0
86795.825,189.715,-1051.87,0,0
88097.45,188.141,-1033.9,0,0
89399.075,187.485,-1015.41,0,0
90700.7,188.245,-999.396,0,0
92002.3,186.451,-984.898,0,0
93303.9,185.108,-968.912,0,0
94605.6,184.759,-951.614,0,0
95907.2,187.116,-937.941,0,0
97208.8,186.965,-927.221,0,0
98510.4,185.714,-912.461,0,0
99812.1,190.466,-902.32,0,0
101114,187.744,-896.959,0,0
102415,182.678,-887.572,0,0
103717,176.368,-880.354,0,0
105019,164.239,-869.618,0,0
106320.175,152.65,-849.46,0,0
107621.8,150.196,-826.23,0,0
108923.425,152.856,-807.245,0,0
110225.05,155.199,-791.127,0,0
111526.675,158.843,-775.187,0,0
112828.3,163.225,-762.247,0,0
114129.925,168.289,-750.936,0,0
115431.55,172.478,-741.604,0,0
116733.175,177.674,-734.647,0,0
118034.8,176.406,-730.618,0,0
119336.425,173.81,-720.047,0,0
120638.05,178.39,-708.407,0,0
121939.675,179.771,-708.381,0,0
123241,174.77,-701.259,0,0
124543,171.802,-693.021,0,0
125845,168.541,-683.998,0,0
127146,165.119,-673.905,0,0
128448,164.081,-661.683,0,0
129749,166.171,-652.428,0,0
131051,166.086,-645.932,0,0
132353,164.117,-639.369,0,0
133654,160.354,-632.283,0,0
134956,155.205,-623.122,0,0
136258,150.466,-611.59,0,0
137559,147.337,-598.749,0,0
138860.775,145.688,-585.253,0,0
140162.4,145.327,-571.588,0,0
141464.025,146.795,-558.035,0,0
142765.65,148.712,-546.184,0,0
144067.275,150.993,-533.662,0,0
145368.9,155.615,-522.985,0,0
146670.525,157.694,-515.008,0,0
147972.15,157.823,-505.772,0,0
149273.775,157.546,-494.237,0,0
150575.4,158.155,-480.41,0,0
151877.025,161.757,-464.148,0,0
153178.65,172.621,-451.056,0,0
154480,179.997,-444.969,0,0
155782,184.669,-434.941,0,0
157084,195.009,-427.433,0,0
158385,200.049,-425.582,0,0
159687,201.264,-421.038,0,0
160988,202.384,-414.14,0,0
162290,203.362,-407.321,0,0
163592,203.561,-398.329,0,0
164893,203.262,-388.174,0,0
166195,205.059,-374.866,0,0
167497,208.817,-362.675,0,0
168798,212.978,-350.097,0,0
170100,218.295,-337.945,0,0
171401.375,223.144,-325.47,0,0
172703.0,228.517,-312.271,0,0
174004.625,234.058,-298.572,0,0
175306.25,239.295,-282.652,0,0
176607.875,246.762,-264.001,0,0
177909.5,257.586,-243.34,0,0
179211.125,272.937,-221.181,0,0
180512.75,294.766,-201.22,0,0
181814.375,319.31,-185.709,0,0
183116.0,344.912,-174.51,0,0
184417.625,369.624,-165.318,0,0
185719.25,392.637,-159.498,0,0
187021,410.862,-152.524,0,0
188322,426.272,-135.84,0,0
189624,451.266,-108.34,0,0
190926,494.909,-76.0372,0,0
192227,558.436,-54.8656,0,0
193529,630.164,-48.2377,0,0
194831,713.219,-57.2144,0,0
196132,797.54,-91.8842,0,0
197434,873.8,-145.886,0,0
198735,938.425,-214.389,0,0
200037,993.629,-298.681,0,0
201339,1034.43,-397.766,0,0
202640.35,1050.16,-517.191,0,0
203941.975,1022.45,-633.52,0,0
205243.6,970.729,-727.53,0,0
206545.225,904.874,-800.202,0,0
207846.85,834.83,-848.854,0,0
209148.475,770.259,-879.995,0,0
210450.1,714.435,-903.7,0,0
211751.725,658.025,-930.029,0,0
213053.35,589.836,-944.763,0,0
214354.975,526.103,-941.004,0,0
215656.6,471.844,-926.988,0,0
216958.225,427.646,-908.554,0,0
218259.85,390.461,-888.706,0,0
219561,358.768,-867.661,0,0
220863,331.799,-846.025,0,0
222165,308.619,-823.685,0,0
223466,289.571,-800.13,0,0
224768,276.294,-775.821,0,0
226070,269.364,-752.616,0,0
227371,268.814,-735.087,0,0
228673,268.33,-726.355,0,0
229974,261.885,-721.345,0,0
231276,251.162,-714.047,0,0
232578,240.068,-702.784,0,0
233879,230.86,-689.011,0,0
235180.95,224.851,-674.316,0,0
236482.575,221.106,-659.914,0,0
237784.2,219.281,-646.255,0,0
239085.825,218.88,-633.373,0,0
240387.45,220.016,-621.474,0,0
241689.075,222.02,-610.27,0,0
242990.7,225.345,-599.732,0,0
244292.325,229.952,-590.022,0,0
245593.95,236.071,-580.925,0,0
246895.575,244.342,-572.623,0,0
248197.2,255.962,-566.904,0,0
249498.825,268.248,-566.283,0,0
250800,278.679,-567.628,0,0
252102,292.071,-570.212,0,0
253404,307.555,-580.784,0,0
254705,317.857,-600.422,0,0
256007,318.436,-623.993,0,0
257309,309.656,-645.645,0,0
258610,294.976,-662.41,0,0
259912,277.21,-673.903,0,0
261213,258.054,-680.408,0,0
262515,239.462,-682.021,0,0
263817,222.889,-680.552,0,0
265118,207.913,-677.324,0,0
266420,194.331,-672.578,0,0
267721.55,182.264,-666.985,0,0
269023.175,171.595,-660.893,0,0
270324.8,161.845,-654.447,0,0
271626.425,152.91,-647.627,0,0
272928.05,144.806,-640.646,0,0
274229.675,137.43,-633.319,0,0
275531.3,130.734,-625.904,0,0
276832.925,124.862,-618.321,0,0
278134.55,119.705,-610.74,0,0
279436.175,115.223,-603.023,0,0
280737.8,111.812,-595.248,0,0
282039.425,109.396,-588.482,0,0
283341,106.741,-582.348,0,0
284643,104.328,-576.093,0,0
285944,102.639,-570.185,0,0
287246,101.066,-565.303,0,0
288548,98.8864,-560.445,0,0
289849,97.039,-555.464,0,0
291151,95.3886,-550.768,0,0
292452,93.8976,-546.505,0,0
293754,92.2539,-542.696,0,0
295056,89.865,-539.069,0,0
296357,86.9064,-534.964,0,0
297659,84.0028,-529.768,0,0
298960.525,82.3541,-523.817,0,0
300262.15,81.983,-518.717,0,0
301563.775,81.4674,-514.535,0,0
302865.4,80.6907,-510.814,0,0
304167.025,79.6652,-506.942,0,0
305468.65,78.9889,-502.768,0,0
306770.275,78.9695,-499.195,0,0
308071.9,78.5492,-496.674,0,0
309373.525,77.4078,-494.034,0,0
310675.15,76.1981,-491.298,0,0
311976.775,74.6783,-488.549,0,0
313278.4,73.0631,-485.639,0,0
314580,71.4515,-482.424,0,0
315882,69.8948,-479.124,0,0
317183,68.5195,-475.878,0,0
318485,67.0279,-472.721,0,0
319787,65.5758,-469.424,0,0
321088,64.1459,-466.031,0,0
322390,62.8864,-462.421,0,0
323691,61.9223,-458.917,0,0
324993,60.857,-455.624,0,0
326295,59.8191,-452.306,0,0
327596,58.7819,-448.893,0,0
328898,57.844,-445.491,0,0
330200,56.9696,-442.128,0,0
331501.125,56.1834,-438.783,0,0
332802.75,55.4505,-435.334,0,0
334104.375,54.8361,-431.909,0,0
335406.0,54.4318,-428.502,0,0
336707.625,54.0769,-425.376,0,0
338009.25,53.7247,-422.207,0,0
339310.875,53.3826,-419.106,0,0
340612.5,53.0643,-415.988,0,0
341914.125,52.9419,-412.863,0,0
343215.75,53.1633,-409.957,0,0
344517.375,53.2217,-407.746,0,0
345819.0,52.5654,-405.407,0,0
347121,51.8489,-402.643,0,0
348422,51.396,-399.684,0,0
349724,51.1349,-396.768,0,0
351025,51.0291,-393.858,0,0
352327,50.9493,-391.068,0,0
353629,51.0319,-388.424,0,0
354930,51.0301,-385.987,0,0
356232,50.8462,-383.479,0,0
357534,50.7652,-380.842,0,0
358835,50.9064,-378.353,0,0
360137,51.0055,-376.147,0,0
361438,50.974,-374.018,0,0
362740.1,50.6901,-371.937,0,0
364041.725,50.3248,-369.614,0,0
365343.35,50.0248,-367.212,0,0
366644.975,49.7981,-364.775,0,0
367946.6,49.7169,-362.353,0,0
369248.225,49.6215,-359.936,0,0
370549.85,49.6224,-357.464,0,0
371851.475,49.7961,-355.085,0,0
373153.1,50.1266,-352.981,0,0
374454.725,50.3471,-351.312,0,0
375756.35,49.9016,-349.654,0,0
377057.975,49.337,-347.7,0,0
378359.6,48.7484,-345.538,0,0
379661,48.1517,-343.229,0,0
380963,47.5587,-340.714,0,0
382264,47.2421,-337.842,0,0
383566,47.568,-335.208,0,0
384868,47.6155,-333.196,0,0
386169,47.2041,-330.948,0,0
387471,46.8681,-328.539,0,0
388773,46.5896,-325.966,0,0
390074,46.4225,-323.336,0,0
391376,46.3515,-320.698,0,0
392677,46.3851,-318.051,0,0
393979,46.3761,-315.38,0,0
395280.7,46.4547,-312.722,0,0
396582.325,46.5737,-310.031,0,0
397883.95,46.7683,-307.325,0,0
399185.575,47.0256,-304.62,0,0
400006.6,47.1748,-302.935,0,0