File: Accelerated corrosion test data/2025-10-06_06-00-03/sample_3.csv
Frequency (Hz),Impedance (ohms),Phase (Radians),Temperature (C),Humidity (%)
10000.0,251.075,-11766.4,0,0
11301.625,223.974,-10422.3,0,0
12603.25,202.734,-9353.59,0,0
13904.875,185.688,-8482.62,0,0
15206.5,172.836,-7754.61,0,0
16508.125,161.876,-7161.22,0,0
17809.75,156.415,-6632.87,0,0
19111.375,146.023,-6182.09,0,0
20413.0,158.017,-5783.38,0,0
21714.625,138.158,-5462.94,0,0
23016.25,128.137,-5157.42,0,0
24317.875,118.318,-4878.93,0,0
25619.5,113.68,-4631.77,0,0
26921.1,108.388,-4402.26,0,0
28222.7,103.582,-4196.17,0,0
29524.4,109.465,-4017.8,0,0
30826,100.428,-3847.43,0,0
32127.6,101.066,-3683.91,0,0
33429.2,99.735,-3558.37,0,0
34730.9,87.8278,-3421.61,0,0
36032.5,83.1974,-3293.83,0,0
37334.1,80.2427,-3176.67,0,0
38635.7,77.8968,-3066.62,0,0
39937.4,75.8851,-2964.38,0,0
41239,74.1341,-2867.81,0,0
42540.6,73.276,-2778.25,0,0
43842.225,71.7897,-2692.68,0,0
45143.85,70.8939,-2613.22,0,0
46445.475,69.7364,-2537.78,0,0
47747.1,69.9525,-2465.22,0,0
49048.725,68.4812,-2400.02,0,0
50350.35,66.6472,-2334.96,0,0
51651.975,66.139,-2272.37,0,0
52953.6,66.4313,-2212.84,0,0
54255.225,69.246,-2158.09,0,0
55556.85,66.6203,-2110.75,0,0
56858.475,61.6516,-2058.15,0,0
58160.1,61.2373,-2006.14,0,0
59461.7,61.7073,-1957.15,0,0
60763.3,63.0312,-1910.42,0,0
62065,65.2892,-1865.95,0,0
63366.6,68.778,-1822.34,0,0
64668.2,77.487,-1780.55,0,0
65969.8,91.5364,-1755.86,0,0
67271.5,76.4788,-1730.16,0,0
68573.1,76.3685,-1692.83,0,0
69874.7,75.6996,-1663.68,0,0
71176.3,70.5063,-1633.28,0,0
72478,68.9976,-1600.59,0,0
73779.6,67.3809,-1572.2,0,0
75081.2,63.7895,-1543.94,0,0
76382.825,60.3582,-1514.6,0,0
77684.45,57.9074,-1485.76,0,0
78986.075,55.7673,-1457.32,0,0
80287.7,54.2689,-1429.35,0,0
81589.325,53.3137,-1402.17,0,0
82890.95,52.7477,-1375.76,0,0
84192.575,52.5223,-1350.12,0,0
85494.2,52.4803,-1325.05,0,0
86795.825,52.6443,-1300.94,0,0
88097.45,53.2525,-1276.93,0,0
89399.075,54.5765,-1253.25,0,0
90700.7,56.9509,-1231.43,0,0
92002.3,59.5449,-1210.61,0,0
93303.9,62.8982,-1191.92,0,0
94605.6,64.0412,-1177.51,0,0
95907.2,58.4612,-1160.28,0,0
97208.8,57.4417,-1139.32,0,0
98510.4,57.2057,-1120.08,0,0
99812.1,56.4383,-1101.49,0,0
101114,55.7515,-1081.86,0,0
102415,56.8751,-1061.35,0,0
103717,60.7412,-1043.56,0,0
105019,64.1974,-1029.7,0,0
106320.175,63.1806,-1016.4,0,0
107621.8,60.357,-1000.51,0,0
108923.425,58.548,-982.659,0,0
110225.05,58.7022,-963.865,0,0
111526.675,61.1096,-946.11,0,0
112828.3,63.1681,-930.096,0,0
114129.925,64.7877,-913.957,0,0
115431.55,67.1393,-897.196,0,0
116733.175,70.9324,-880.683,0,0
118034.8,76.6502,-865.062,0,0
119336.425,83.3179,-853.603,0,0
120638.05,88.8021,-847.014,0,0
121939.675,86.572,-838.497,0,0
123241,86.8718,-825.551,0,0
124543,88.2929,-814.383,0,0
125845,89.3119,-804.099,0,0
127146,88.5719,-794.51,0,0
128448,86.7077,-783.357,0,0
129749,84.9807,-770.069,0,0
131051,86.0914,-756.963,0,0
132353,85.6812,-745.833,0,0
133654,85.1231,-733.798,0,0
134956,83.615,-721.393,0,0
136258,82.3334,-707.632,0,0
137559,82.1465,-692.672,0,0
138860.775,83.4997,-679.15,0,0
140162.4,82.7014,-665.592,0,0
141464.025,82.627,-651.263,0,0
142765.65,82.1053,-635.47,0,0
144067.275,82.4042,-618.31,0,0
145368.9,84.0805,-600.392,0,0
146670.525,86.7396,-581.531,0,0
147972.15,91.1772,-561.704,0,0
149273.775,97.8483,-541.582,0,0
150575.4,108.289,-521.091,0,0
151877.025,121.174,-504.391,0,0
153178.65,133.927,-490.952,0,0
154480,143.824,-478.663,0,0
155782,152.265,-462.431,0,0
157084,164.072,-445.418,0,0
158385,179.765,-432.916,0,0
159687,186.311,-418.358,0,0
160988,201.393,-389.869,0,0
162290,228.178,-364.986,0,0
163592,265.713,-346.185,0,0
164893,313.022,-336.452,0,0
166195,366.69,-348.924,0,0
167497,405.76,-382.74,0,0
168798,424.591,-423.588,0,0
170100,424.283,-462.985,0,0
171401.375,406.28,-479.847,0,0
172703.0,401.014,-481.525,0,0
174004.625,408.58,-488.371,0,0
175306.25,413.859,-506.081,0,0
176607.875,405.246,-525.863,0,0
177909.5,385.803,-539.768,0,0
179211.125,363.012,-533.306,0,0
180512.75,357.75,-519.42,0,0
181814.375,361.111,-515.773,0,0
183116.0,354.146,-521.332,0,0
184417.625,341.004,-517.607,0,0
185719.25,328.013,-505.034,0,0
187021,322.6,-481.882,0,0
188322,329.586,-462.916,0,0
189624,335.792,-449.553,0,0
190926,345.331,-435.529,0,0
192227,354.932,-421.776,0,0
193529,366.338,-405.023,0,0
194831,390.129,-386.544,0,0
196132,421.417,-384.1,0,0
197434,445.467,-395.807,0,0
198735,457.406,-404.117,0,0
200037,466.806,-406.35,0,0
201339,472.041,-404.606,0,0
202640.35,488.66,-393.956,0,0
203941.975,518.523,-391.542,0,0
205243.6,547.489,-402.442,0,0
206545.225,563.101,-420.364,0,0
207846.85,579.545,-422.161,0,0
209148.475,609.661,-429.402,0,0
210450.1,642.324,-450.646,0,0
211751.725,669.025,-480.416,0,0
213053.35,690.385,-515.528,0,0
214354.975,706.132,-557.007,0,0
215656.6,715.291,-601.389,0,0
216958.225,713.834,-651.684,0,0
218259.85,698.819,-695.912,0,0
219561,677.882,-733.42,0,0
220863,660.11,-770.07,0,0
222165,628.345,-806.909,0,0
223466,584.457,-833.702,0,0
224768,541.948,-836.117,0,0
226070,518.859,-832.144,0,0
227371,503.044,-841.032,0,0
228673,479.036,-853.637,0,0
229974,449.585,-860.968,0,0
231276,420.437,-862.622,0,0
232578,394.112,-860.248,0,0
233879,369.977,-856.038,0,0
235180.95,347.232,-851.762,0,0
236482.575,322.762,-846.823,0,0
237784.2,298.482,-837.136,0,0
239085.825,275.029,-823.064,0,0
240387.45,257.477,-804.621,0,0
241689.075,244.501,-786.575,0,0
242990.7,236.267,-768.505,0,0
244292.325,231.722,-753.395,0,0
245593.95,227.537,-741.527,0,0
246895.575,222.679,-730.601,0,0
248197.2,218.566,-719.068,0,0
249498.825,217.603,-708.417,0,0
250800,216.004,-702.489,0,0
252102,209.947,-696.583,0,0
253404,201.795,-686.146,0,0
254705,197.169,-670.908,0,0
256007,197.915,-654.304,0,0
257309,205.653,-640.215,0,0
258610,214.55,-632.351,0,0
259912,225.044,-625.156,0,0
261213,239.528,-625.216,0,0
262515,250.515,-636.506,0,0
263817,249.6,-651.079,0,0
265118,240.131,-662.199,0,0
266420,225.487,-666.13,0,0
267721.55,211.27,-661.794,0,0
269023.175,201.951,-652.915,0,0
270324.8,197.009,-643.587,0,0
271626.425,194.961,-634.18,0,0
272928.05,195.688,-627.166,0,0
274229.675,195.456,-620.593,0,0
275531.3,198.217,-613.151,0,0
276832.925,205.492,-608.654,0,0
278134.55,213.203,-611.207,0,0
279436.175,215.96,-618.798,0,0
280737.8,212.406,-626.222,0,0
282039.425,205.528,-630.803,0,0
283341,196.424,-632.279,0,0
284643,187.648,-630.193,0,0
285944,179.76,-625.694,0,0
287246,174.131,-618.514,0,0
288548,173.2,-611.206,0,0
289849,173.451,-607.902,0,0
291151,172.431,-605.626,0,0
292452,169.908,-603.215,0,0
293754,168.464,-598.743,0,0
295056,170.259,-595.015,0,0
296357,173.06,-595.576,0,0
297659,172.897,-599.06,0,0
298960.525,169.067,-602.618,0,0
300262.15,163.24,-604.332,0,0
301563.775,156.427,-604.296,0,0
302865.4,149.433,-602.291,0,0
304167.025,143.251,-598.888,0,0
305468.65,137.831,-594.453,0,0
306770.275,133.601,-589.247,0,0
308071.9,131.179,-584.276,0,0
309373.525,129.384,-580.985,0,0
310675.15,126.451,-578.52,0,0
311976.775,122.541,-575.629,0,0
313278.4,117.803,-571.279,0,0
314580,114.245,-564.895,0,0
315882,113.218,-558.084,0,0
317183,114.238,-552.9,0,0
318485,115.066,-550.003,0,0
319787,114.996,-547.576,0,0
321088,114.63,-544.887,0,0
322390,115.299,-542.717,0,0
323691,115.643,-542.511,0,0
324993,114.18,-543.23,0,0
326295,110.985,-543.519,0,0
327596,106.632,-542.71,0,0
328898,102.406,-540.528,0,0
330200,98.4207,-537.947,0,0
331501.125,94.2861,-535.146,0,0
332802.75,89.8647,-531.521,0,0
334104.375,85.5417,-527.053,0,0
335406.0,81.8354,-521.474,0,0
336707.625,79.202,-515.286,0,0
338009.25,77.3702,-509.197,0,0
339310.875,76.2367,-502.808,0,0
340612.5,76.4865,-496.074,0,0
341914.125,78.5302,-490.447,0,0
343215.75,81.1604,-486.919,0,0
344517.375,82.7566,-484.979,0,0
345819.0,82.8458,-483.339,0,0
347121,82.3787,-481.13,0,0
348422,81.653,-478.44,0,0
349724,81.2467,-475.024,0,0
351025,82.0852,-471.598,0,0
352327,83.5486,-469.783,0,0
353629,83.7058,-469.416,0,0
354930,82.084,-468.414,0,0
356232,80.221,-466.183,0,0
357534,78.6322,-463.353,0,0
358835,77.3868,-459.882,0,0
360137,77.0737,-456.265,0,0
361438,77.1635,-453.235,0,0
362740.1,77.1505,-450.237,0,0
364041.725,77.764,-447.06,0,0
365343.35,79.307,-445.16,0,0
366644.975,79.7586,-444.968,0,0
367946.6,77.9083,-444.487,0,0
369248.225,75.1877,-441.663,0,0
370549.85,74.691,-436.868,0,0
371851.475,76.6125,-434.252,0,0
373153.1,77.0502,-433.851,0,0
374454.725,75.2966,-432.649,0,0
375756.35,73.4843,-429.967,0,0
377057.975,72.6875,-426.185,0,0
378359.6,73.1333,-422.732,0,0
379661,74.0368,-420.098,0,0
380963,74.812,-418.243,0,0
382264,75.187,-416.766,0,0
383566,75.0122,-415.583,0,0
384868,74.178,-414.298,0,0
386169,72.9179,-412.257,0,0
387471,71.785,-409.628,0,0
388773,70.7578,-406.503,0,0
390074,70.2705,-402.675,0,0
391376,70.9066,-398.634,0,0
392677,72.6043,-395.002,0,0
393979,75.1078,-392.457,0,0
395280.7,77.6056,-391.096,0,0
396582.325,79.6085,-390.908,0,0
397883.95,80.6644,-391.39,0,0
399185.575,80.4414,-391.935,0,0
400006.6,79.8567,-392,0,0