File: Accelerated corrosion test data/2025-10-15_11-00-19/sample_3.csv
Frequency (Hz),Impedance (ohms),Phase (Radians),Temperature (C),Humidity (%)
10000.0,251.127,-11865.9,0,0
11301.625,224.194,-10510.5,0,0
12603.25,203.179,-9432.53,0,0
13904.875,186.286,-8554.58,0,0
15206.5,173.336,-7819.11,0,0
16508.125,161.578,-7220.55,0,0
17809.75,157.483,-6688.73,0,0
19111.375,146.936,-6235.11,0,0
20413.0,159.739,-5832.37,0,0
21714.625,139.01,-5508.26,0,0
23016.25,128.416,-5200.73,0,0
24317.875,119.483,-4919.38,0,0
25619.5,113.248,-4670.95,0,0
26921.1,108.722,-4438.74,0,0
28222.7,103.844,-4230.33,0,0
29524.4,109.066,-4052.83,0,0
30826,101.72,-3879.84,0,0
32127.6,101.657,-3713.79,0,0
33429.2,99.5696,-3589.38,0,0
34730.9,88.1709,-3450.39,0,0
36032.5,83.6194,-3321.81,0,0
37334.1,80.4269,-3203,0,0
38635.7,78.0423,-3092.56,0,0
39937.4,75.7873,-2989.34,0,0
41239,74.4966,-2891.5,0,0
42540.6,73.2232,-2801.42,0,0
43842.225,72.0652,-2715.27,0,0
45143.85,71.0912,-2635.24,0,0
46445.475,69.7546,-2559.08,0,0
47747.1,70.0911,-2486.04,0,0
49048.725,68.5267,-2419.87,0,0
50350.35,66.5917,-2354.63,0,0
51651.975,66.2602,-2291.43,0,0
52953.6,66.4679,-2231.29,0,0
54255.225,69.3557,-2175.97,0,0
55556.85,66.7141,-2128.1,0,0
56858.475,61.8311,-2075.15,0,0
58160.1,61.1788,-2022.81,0,0
59461.7,61.7922,-1973.23,0,0
60763.3,63.0961,-1926.39,0,0
62065,64.9107,-1881.17,0,0
63366.6,69.0199,-1837.35,0,0
64668.2,77.6914,-1795.32,0,0
65969.8,92.4668,-1769.37,0,0
67271.5,75.7138,-1744.34,0,0
68573.1,76.1172,-1706.42,0,0
69874.7,76.4315,-1677.05,0,0
71176.3,71.1116,-1646.24,0,0
72478,69.8235,-1613.39,0,0
73779.6,68.3717,-1585.04,0,0
75081.2,64.726,-1556.78,0,0
76382.825,61.0542,-1527.44,0,0
77684.45,58.4433,-1498.43,0,0
78986.075,56.1478,-1469.71,0,0
80287.7,54.5639,-1441.54,0,0
81589.325,53.5145,-1414.06,0,0
82890.95,52.9779,-1387.45,0,0
84192.575,52.6308,-1361.66,0,0
85494.2,52.5148,-1336.5,0,0
86795.825,52.6413,-1312.01,0,0
88097.45,53.2482,-1287.93,0,0
89399.075,54.4498,-1263.96,0,0
90700.7,56.6474,-1242.28,0,0
92002.3,59.0693,-1221.39,0,0
93303.9,61.8554,-1202.39,0,0
94605.6,62.7144,-1187.74,0,0
95907.2,57.5694,-1169.79,0,0
97208.8,56.3115,-1148.35,0,0
98510.4,56.08,-1128.58,0,0
99812.1,55.6029,-1109.56,0,0
101114,55.2647,-1089.68,0,0
102415,56.5827,-1069.07,0,0
103717,60.4929,-1051.38,0,0
105019,63.7604,-1037.05,0,0
106320.175,63.2004,-1023.16,0,0
107621.8,61.0901,-1007.51,0,0
108923.425,59.2144,-990.079,0,0
110225.05,59.1821,-971.476,0,0
111526.675,61.5527,-953.53,0,0
112828.3,63.5763,-937.383,0,0
114129.925,65.0701,-921.49,0,0
115431.55,67.1099,-904.409,0,0
116733.175,70.7267,-887.664,0,0
118034.8,76.6262,-871.476,0,0
119336.425,83.2517,-859.335,0,0
120638.05,89.5261,-853.196,0,0
121939.675,86.5166,-844.792,0,0
123241,86.9467,-831.158,0,0
124543,88.6651,-819.654,0,0
125845,90.2152,-809.149,0,0
127146,89.7622,-799.396,0,0
128448,88.3248,-788.711,0,0
129749,86.8385,-775.896,0,0
131051,87.8647,-762.992,0,0
132353,87.1809,-752.038,0,0
133654,86.4022,-740.217,0,0
134956,84.9053,-727.495,0,0
136258,83.4383,-714.175,0,0
137559,83.0264,-698.977,0,0
138860.775,84.3788,-685.191,0,0
140162.4,83.6771,-671.88,0,0
141464.025,83.1911,-657.693,0,0
142765.65,82.3639,-641.72,0,0
144067.275,82.6143,-624.48,0,0
145368.9,84.2954,-606.321,0,0
146670.525,86.8177,-587.48,0,0
147972.15,91.1172,-567.54,0,0
149273.775,97.5034,-547.202,0,0
150575.4,107.923,-526.9,0,0
151877.025,120.513,-509.807,0,0
153178.65,132.966,-496.084,0,0
154480,143.135,-483.944,0,0
155782,151.407,-467.661,0,0
157084,163.271,-450.202,0,0
158385,179.836,-439.147,0,0
159687,184.195,-424.717,0,0
160988,199.251,-397.322,0,0
162290,224.365,-371.637,0,0
163592,258.777,-349.384,0,0
164893,307.522,-337.278,0,0
166195,359.248,-349.109,0,0
167497,399.417,-379.167,0,0
168798,422.141,-415.341,0,0
170100,422.987,-457.256,0,0
171401.375,408.446,-473.389,0,0
172703.0,405.727,-476.244,0,0
174004.625,414.054,-486.938,0,0
175306.25,416.15,-504.416,0,0
176607.875,413.951,-523.245,0,0
177909.5,391.934,-542.384,0,0
179211.125,367.738,-534.719,0,0
180512.75,362.835,-521.045,0,0
181814.375,368.279,-517.418,0,0
183116.0,361.381,-524.263,0,0
184417.625,346.27,-522.718,0,0
185719.25,331.243,-509.901,0,0
187021,325.605,-487.405,0,0
188322,331.48,-468.937,0,0
189624,335.562,-453.75,0,0
190926,345.464,-438.971,0,0
192227,354.197,-425.375,0,0
193529,364.938,-406.432,0,0
194831,388.192,-388.938,0,0
196132,420.103,-382.552,0,0
197434,443.42,-393.505,0,0
198735,457.119,-399.222,0,0
200037,467.87,-404.121,0,0
201339,473.889,-398.571,0,0
202640.35,494.339,-389.061,0,0
203941.975,524.207,-388.96,0,0
205243.6,552.77,-402.217,0,0
206545.225,565.185,-417.944,0,0
207846.85,584.809,-416.908,0,0
209148.475,617.496,-425.264,0,0
210450.1,651.065,-447.444,0,0
211751.725,678.485,-479.683,0,0
213053.35,700.207,-514.6,0,0
214354.975,715.356,-557.927,0,0
215656.6,722.249,-604.041,0,0
216958.225,719.472,-650.04,0,0
218259.85,707.15,-694.636,0,0
219561,688.258,-731.597,0,0
220863,669.579,-769.678,0,0
222165,640.303,-808.828,0,0
223466,594.373,-836.05,0,0
224768,552.34,-838.856,0,0
226070,530.39,-836.999,0,0
227371,512.059,-845.838,0,0
228673,486.403,-857.886,0,0
229974,459.133,-863.259,0,0
231276,431.342,-866.456,0,0
232578,404.583,-865.235,0,0
233879,379.992,-862.081,0,0
235180.95,356.981,-857.649,0,0
236482.575,332.902,-853.28,0,0
237784.2,308.415,-845.293,0,0
239085.825,284.14,-831.391,0,0
240387.45,266.423,-814.336,0,0
241689.075,251.432,-796.819,0,0
242990.7,242.127,-778.377,0,0
244292.325,237.33,-763.412,0,0
245593.95,231.411,-751.732,0,0
246895.575,225.779,-739.228,0,0
248197.2,221.704,-727.164,0,0
249498.825,221.147,-715.665,0,0
250800,219.685,-709.963,0,0
252102,213.306,-704.084,0,0
253404,205.061,-693.419,0,0
254705,200.029,-678.559,0,0
256007,200.237,-661.629,0,0
257309,207.772,-647.776,0,0
258610,215.292,-638.655,0,0
259912,226.991,-629.775,0,0
261213,243.26,-630.256,0,0
262515,253.88,-642.762,0,0
263817,252.557,-657.436,0,0
265118,242.608,-668.512,0,0
266420,228.146,-672.35,0,0
267721.55,213.638,-668.345,0,0
269023.175,204.022,-659.496,0,0
270324.8,198.003,-649.887,0,0
271626.425,196.192,-640.114,0,0
272928.05,195.945,-633.608,0,0
274229.675,194.93,-625.258,0,0
275531.3,198.524,-617.029,0,0
276832.925,205.738,-612.119,0,0
278134.55,213.658,-613.49,0,0
279436.175,217.84,-619.807,0,0
280737.8,216.262,-627.973,0,0
282039.425,209.941,-633.587,0,0
283341,201.617,-635.938,0,0
284643,192.482,-635.069,0,0
285944,184.086,-631.128,0,0
287246,178.16,-624.625,0,0
288548,176.314,-618.068,0,0
289849,175.655,-614.461,0,0
291151,174.188,-612.307,0,0
292452,170.736,-609.72,0,0
293754,168.592,-604.443,0,0
295056,169.882,-600.205,0,0
296357,172.293,-599.49,0,0
297659,172.61,-601.89,0,0
298960.525,169.677,-604.599,0,0
300262.15,164.848,-606.323,0,0
301563.775,158.678,-606.766,0,0
302865.4,151.842,-605.089,0,0
304167.025,145.645,-601.963,0,0
305468.65,140.073,-597.496,0,0
306770.275,136.144,-592.295,0,0
308071.9,133.766,-587.538,0,0
309373.525,131.832,-584.182,0,0
310675.15,129.255,-581.62,0,0
311976.775,125.375,-579.013,0,0
313278.4,120.823,-574.869,0,0
314580,117.024,-569.014,0,0
315882,115.537,-562.193,0,0
317183,116.202,-556.918,0,0
318485,116.586,-553.537,0,0
319787,116.633,-550.457,0,0
321088,116.858,-547.285,0,0
322390,118.055,-545.227,0,0
323691,118.783,-545.254,0,0
324993,117.678,-546.411,0,0
326295,114.375,-547.142,0,0
327596,109.944,-546.594,0,0
328898,105.442,-544.796,0,0
330200,101.133,-542.163,0,0
331501.125,96.8851,-539.23,0,0
332802.75,92.4499,-535.646,0,0
334104.375,88.0902,-531.299,0,0
335406.0,84.1746,-525.793,0,0
336707.625,81.3249,-519.841,0,0
338009.25,79.2294,-513.568,0,0
339310.875,77.8192,-507.055,0,0
340612.5,77.8018,-500.195,0,0
341914.125,79.6281,-494.175,0,0
343215.75,82.3147,-490.054,0,0
344517.375,84.3265,-487.995,0,0
345819.0,84.55,-486.277,0,0
347121,84.3304,-484.083,0,0
348422,83.6532,-481.569,0,0
349724,83.0271,-478.009,0,0
351025,84.004,-474.262,0,0
352327,85.747,-472.402,0,0
353629,86.0039,-472.017,0,0
354930,84.5876,-471.075,0,0
356232,83.0561,-469.054,0,0
357534,81.2663,-466.453,0,0
358835,80.126,-462.944,0,0
360137,79.9562,-459.618,0,0
361438,79.8551,-456.859,0,0
362740.1,79.5144,-453.881,0,0
364041.725,80.0571,-450.515,0,0
365343.35,81.5379,-448.395,0,0
366644.975,82.098,-448.046,0,0
367946.6,80.605,-447.416,0,0
369248.225,78.0678,-444.977,0,0
370549.85,77.5356,-440.511,0,0
371851.475,79.2514,-437.918,0,0
373153.1,79.5638,-437.515,0,0
374454.725,77.7864,-436.365,0,0
375756.35,75.8019,-433.588,0,0
377057.975,74.9994,-429.864,0,0
378359.6,75.3859,-426.407,0,0
379661,76.3565,-423.673,0,0
380963,77.2473,-422.161,0,0
382264,77.2171,-420.704,0,0
383566,77.1072,-419.314,0,0
384868,76.1813,-418.063,0,0
386169,74.9513,-416.058,0,0
387471,73.5627,-413.505,0,0
388773,72.3666,-410.221,0,0
390074,71.9052,-406.181,0,0
391376,72.6091,-401.948,0,0
392677,74.5962,-398.277,0,0
393979,77.1573,-396.046,0,0
395280.7,79.4075,-394.77,0,0
396582.325,81.2066,-394.394,0,0
397883.95,82.3355,-394.701,0,0
399185.575,82.3042,-395.094,0,0
400006.6,81.8662,-395.225,0,0