File: Accelerated corrosion test data/2025-10-15_11-00-19/sample_4.csv
Frequency (Hz),Impedance (ohms),Phase (Radians),Temperature (C),Humidity (%)
10000.0,262.844,-11896.9,0,0
11301.625,233.781,-10539.1,0,0
12603.25,213.118,-9454.9,0,0
13904.875,191.988,-8573.37,0,0
15206.5,180.835,-7846.49,0,0
16508.125,188.963,-7230.29,0,0
17809.75,155.834,-6723.08,0,0
19111.375,145.03,-6264.92,0,0
20413.0,140.357,-5863.48,0,0
21714.625,145.739,-5517.8,0,0
23016.25,125.138,-5217.35,0,0
24317.875,115.748,-4931.96,0,0
25619.5,111.745,-4678.68,0,0
26921.1,106.041,-4448.45,0,0
28222.7,120.744,-4245.65,0,0
29524.4,112.966,-4065.28,0,0
30826,98.5323,-3893.21,0,0
32127.6,100.133,-3732.44,0,0
33429.2,89.3997,-3591.62,0,0
34730.9,84.7478,-3452.58,0,0
36032.5,81.5391,-3325.14,0,0
37334.1,79.6104,-3206.44,0,0
38635.7,76.975,-3094.16,0,0
39937.4,77.0182,-2988.12,0,0
41239,80.1151,-2893.21,0,0
42540.6,78.5447,-2804.88,0,0
43842.225,73.5421,-2721.67,0,0
45143.85,71.0487,-2640.68,0,0
46445.475,70.0725,-2563.37,0,0
47747.1,70.0624,-2493.35,0,0
49048.725,66.0166,-2423.96,0,0
50350.35,64.3521,-2356.45,0,0
51651.975,63.801,-2291.67,0,0
52953.6,65.3089,-2228.6,0,0
54255.225,73.6507,-2172.02,0,0
55556.85,71.8116,-2129.02,0,0
56858.475,65.4458,-2074.9,0,0
58160.1,66.2955,-2022.51,0,0
59461.7,70.3664,-1972.11,0,0
60763.3,79.7112,-1933.35,0,0
62065,69.9241,-1900.43,0,0
63366.6,64.1298,-1855.08,0,0
64668.2,64.2846,-1811.5,0,0
65969.8,66.2168,-1770.69,0,0
67271.5,70.2207,-1734.57,0,0
68573.1,73.8305,-1705.45,0,0
69874.7,66.3361,-1675.56,0,0
71176.3,64.8041,-1641.38,0,0
72478,59.2485,-1609.78,0,0
73779.6,57.5866,-1573.36,0,0
75081.2,59.7255,-1540.35,0,0
76382.825,62.132,-1511.4,0,0
77684.45,65.0048,-1483.6,0,0
78986.075,63.8705,-1461.12,0,0
80287.7,60.874,-1434.33,0,0
81589.325,60.3646,-1408.3,0,0
82890.95,59.1255,-1383.21,0,0
84192.575,57.874,-1358.37,0,0
85494.2,56.9889,-1334.08,0,0
86795.825,56.208,-1310.45,0,0
88097.45,54.8273,-1287.68,0,0
89399.075,53.3998,-1263.36,0,0
90700.7,53.3718,-1240.19,0,0
92002.3,53.6086,-1217.09,0,0
93303.9,54.9214,-1196.16,0,0
94605.6,53.5417,-1175.97,0,0
95907.2,52.9091,-1153.43,0,0
97208.8,53.6944,-1131.69,0,0
98510.4,54.9519,-1110.2,0,0
99812.1,57.4556,-1089.38,0,0
101114,61.6438,-1070.81,0,0
102415,60.9444,-1056.23,0,0
103717,58.0561,-1033.54,0,0
105019,61.7315,-1009.91,0,0
106320.175,68.2423,-989.353,0,0
107621.8,75.0237,-971.399,0,0
108923.425,83.3909,-954.571,0,0
110225.05,91.7489,-941.88,0,0
111526.675,97.8782,-931.135,0,0
112828.3,102.971,-921.169,0,0
114129.925,106.414,-912.417,0,0
115431.55,108.421,-904.144,0,0
116733.175,108.095,-895.703,0,0
118034.8,106.146,-885.069,0,0
119336.425,107.131,-871.197,0,0
120638.05,112.404,-866.079,0,0
121939.675,105.372,-860.025,0,0
123241,100.557,-847.664,0,0
124543,97.463,-834.924,0,0
125845,95.7335,-822.731,0,0
127146,92.4318,-811.987,0,0
128448,87.5348,-800.609,0,0
129749,80.5952,-786.09,0,0
131051,75.5782,-768.284,0,0
132353,72.8824,-749.485,0,0
133654,72.0329,-730.545,0,0
134956,72.5555,-711.631,0,0
136258,74.6388,-693.124,0,0
137559,77.1412,-675.848,0,0
138860.775,79.0021,-657.745,0,0
140162.4,82.3392,-638.748,0,0
141464.025,87.3553,-619.739,0,0
142765.65,93.3225,-601.445,0,0
144067.275,99.9146,-583.307,0,0
145368.9,107.394,-564.601,0,0
146670.525,116.848,-545.901,0,0
147972.15,127.558,-527.866,0,0
149273.775,139.918,-509.912,0,0
150575.4,154.466,-491.795,0,0
151877.025,172.95,-475.135,0,0
153178.65,195.172,-462.748,0,0
154480,216.939,-457.339,0,0
155782,234.196,-453.401,0,0
157084,249.382,-451.38,0,0
158385,264.424,-445.976,0,0
159687,285.339,-443.574,0,0
160988,302.081,-450.99,0,0
162290,309.424,-456.199,0,0
163592,314.4,-456.366,0,0
164893,322.289,-450.132,0,0
166195,337.136,-442.021,0,0
167497,364.023,-440.202,0,0
168798,390.92,-454.827,0,0
170100,410.167,-482.815,0,0
171401.375,408.439,-521.32,0,0
172703.0,385.095,-548.795,0,0
174004.625,351.626,-555.81,0,0
175306.25,323.214,-545.895,0,0
176607.875,304.194,-524.35,0,0
177909.5,297.033,-500.691,0,0
179211.125,296.106,-479.314,0,0
180512.75,299.863,-460.3,0,0
181814.375,303.997,-443.913,0,0
183116.0,307.067,-427.105,0,0
184417.625,310.996,-406.705,0,0
185719.25,318.76,-383.38,0,0
187021,330.506,-358.447,0,0
188322,347.31,-331.257,0,0
189624,371.066,-303.098,0,0
190926,403.539,-275.804,0,0
192227,444.969,-252.055,0,0
193529,494.955,-235.56,0,0
194831,550.614,-227.963,0,0
196132,610.727,-227.948,0,0
197434,679.334,-237.893,0,0
198735,755.172,-266.248,0,0
200037,830.832,-322.529,0,0
201339,885.843,-406.075,0,0
202640.35,909.857,-499.585,0,0
203941.975,911.931,-588.82,0,0
205243.6,890.801,-671.434,0,0
206545.225,859.177,-740.371,0,0
207846.85,816.591,-807.538,0,0
209148.475,753.744,-854.575,0,0
210450.1,692.181,-875.821,0,0
211751.725,639.459,-881.531,0,0
213053.35,599.084,-878.967,0,0
214354.975,568.42,-871.318,0,0
215656.6,551.474,-870.537,0,0
216958.225,529.117,-877.173,0,0
218259.85,506.674,-880.128,0,0
219561,485.374,-883.296,0,0
220863,462.063,-887.222,0,0
222165,438.701,-887.767,0,0
223466,416.576,-886.908,0,0
224768,396.016,-887.235,0,0
226070,371.502,-888.151,0,0
227371,344.198,-884.758,0,0
228673,315.992,-875.623,0,0
229974,291.969,-860.041,0,0
231276,273.254,-842.676,0,0
232578,258.65,-824.992,0,0
233879,247.48,-807.869,0,0
235180.95,239.026,-791.711,0,0
236482.575,231.813,-777.11,0,0
237784.2,226.222,-761.795,0,0
239085.825,224.291,-748.241,0,0
240387.45,223.113,-737.81,0,0
241689.075,221.716,-729.649,0,0
242990.7,219.005,-723.196,0,0
244292.325,214.322,-717.177,0,0
245593.95,207.936,-709.323,0,0
246895.575,202.575,-699.303,0,0
248197.2,199.587,-688.92,0,0
249498.825,197.207,-679.517,0,0
250800,195.55,-671.111,0,0
252102,191.998,-663.895,0,0
253404,186.399,-653.696,0,0
254705,182.702,-640.613,0,0
256007,180.62,-624.532,0,0
257309,183.65,-606.297,0,0
258610,192.26,-588.54,0,0
259912,207.281,-573.937,0,0
261213,225.326,-564.111,0,0
262515,245.742,-560.971,0,0
263817,267.647,-564.39,0,0
265118,286.017,-576.337,0,0
266420,298.627,-592.678,0,0
267721.55,306.351,-612.953,0,0
269023.175,304.529,-637.316,0,0
270324.8,290.458,-653.857,0,0
271626.425,279.295,-662.276,0,0
272928.05,269.516,-670.888,0,0
274229.675,256.888,-680.066,0,0
275531.3,238.819,-686.841,0,0
276832.925,218.165,-686.463,0,0
278134.55,198.125,-677.037,0,0
279436.175,187.584,-660.781,0,0
280737.8,186.433,-649.204,0,0
282039.425,183.991,-642.497,0,0
283341,183.861,-635.134,0,0
284643,183.484,-633.244,0,0
285944,179.251,-631.872,0,0
287246,172.142,-626.857,0,0
288548,166.248,-617.371,0,0
289849,167.157,-603.417,0,0
291151,176.531,-594.094,0,0
292452,188.754,-593.147,0,0
293754,197.787,-601.119,0,0
295056,199.205,-613.391,0,0
296357,191.788,-624.406,0,0
297659,180.359,-628.617,0,0
298960.525,170.416,-628.38,0,0
300262.15,161.912,-627.02,0,0
301563.775,153.479,-624.463,0,0
302865.4,146.066,-620.522,0,0
304167.025,139.056,-615.742,0,0
305468.65,133.402,-609.835,0,0
306770.275,129.184,-603.728,0,0
308071.9,126.704,-598.079,0,0
309373.525,124.887,-593.976,0,0
310675.15,121.936,-590.903,0,0
311976.775,118.35,-586.792,0,0
313278.4,115.469,-582.135,0,0
314580,113.648,-577.433,0,0
315882,112.418,-573.588,0,0
317183,111.37,-570.603,0,0
318485,109.98,-568.609,0,0
319787,107.876,-567.493,0,0
321088,104.005,-566.994,0,0
322390,97.8215,-565.44,0,0
323691,90.8049,-560.584,0,0
324993,86.107,-553.605,0,0
326295,83.0351,-547.096,0,0
327596,80.2317,-540.459,0,0
328898,78.4082,-533.34,0,0
330200,77.9453,-526.134,0,0
331501.125,79.1132,-520.114,0,0
332802.75,80.5047,-516.011,0,0
334104.375,80.7042,-513.199,0,0
335406.0,79.4388,-510.293,0,0
336707.625,77.2473,-506.07,0,0
338009.25,75.7024,-500.399,0,0
339310.875,75.3172,-494.299,0,0
340612.5,76.1897,-487.796,0,0
341914.125,79.1275,-481.811,0,0
343215.75,83.5359,-477.975,0,0
344517.375,87.3405,-476.866,0,0
345819.0,89.3613,-477.185,0,0
347121,89.5847,-477.616,0,0
348422,88.3805,-477.513,0,0
349724,86.4946,-476.287,0,0
351025,84.4743,-474.167,0,0
352327,82.4906,-471.214,0,0
353629,81.4014,-467.357,0,0
354930,81.4335,-464.032,0,0
356232,81.3296,-461.412,0,0
357534,80.8404,-459.031,0,0
358835,79.7295,-456.309,0,0
360137,78.7098,-452.824,0,0
361438,78.1892,-448.676,0,0
362740.1,78.7462,-444.777,0,0
364041.725,79.4429,-441.623,0,0
365343.35,79.4461,-438.339,0,0
366644.975,79.6106,-434.031,0,0
367946.6,81.2031,-429.205,0,0
369248.225,84.2238,-424.803,0,0
370549.85,88.4319,-421.42,0,0
371851.475,93.9472,-419.869,0,0
373153.1,99.0287,-421.251,0,0
374454.725,101.704,-424.84,0,0
375756.35,101.262,-427.667,0,0
377057.975,100.453,-428.936,0,0
378359.6,99.4946,-429.861,0,0
379661,98.1612,-430.463,0,0
380963,96.5187,-430.52,0,0
382264,95.6,-429.318,0,0
383566,96.575,-430.172,0,0
384868,94.7366,-433.266,0,0
386169,89.8691,-434.961,0,0
387471,84.0602,-433.554,0,0
388773,79.9704,-429.256,0,0
390074,79.0836,-424.709,0,0
391376,79.9915,-422.998,0,0
392677,78.6356,-424.045,0,0
393979,74.324,-423.688,0,0
395280.7,69.6797,-420.899,0,0
396582.325,66.2178,-416.669,0,0
397883.95,63.6832,-412.241,0,0
399185.575,61.7144,-407.358,0,0
400006.6,60.8593,-404.201,0,0