File: Accelerated corrosion test data/2025-10-15_11-00-19/sample_6.csv
Frequency (Hz),Impedance (ohms),Phase (Radians),Temperature (C),Humidity (%)
10000.0,4118.31,-6735.44,0,0
11301.625,3490.88,-6315.93,0,0
12603.25,2995.22,-5922.16,0,0
13904.875,2596.67,-5565.47,0,0
15206.5,2272.4,-5236.41,0,0
16508.125,2005.65,-4938.1,0,0
17809.75,1784.81,-4666.7,0,0
19111.375,1598.88,-4420.02,0,0
20413.0,1441.2,-4196.26,0,0
21714.625,1306.07,-3990.6,0,0
23016.25,1192.06,-3801.46,0,0
24317.875,1092.98,-3630.91,0,0
25619.5,1004.3,-3474.41,0,0
26921.1,927.999,-3327.47,0,0
28222.7,860.155,-3194.65,0,0
29524.4,798.667,-3067.18,0,0
30826,749.496,-2950.72,0,0
32127.6,701.638,-2841.93,0,0
33429.2,662.668,-2744.18,0,0
34730.9,619.254,-2651.15,0,0
36032.5,582.096,-2563.48,0,0
37334.1,549.811,-2477.06,0,0
38635.7,521.705,-2396.01,0,0
39937.4,500.369,-2319.94,0,0
41239,479.953,-2254.47,0,0
42540.6,454.677,-2192.03,0,0
43842.225,435.594,-2125.73,0,0
45143.85,421.487,-2065.9,0,0
46445.475,408.462,-2012.53,0,0
47747.1,397.087,-1963.35,0,0
49048.725,383.173,-1923.05,0,0
50350.35,360.409,-1882.07,0,0
51651.975,340.613,-1834.07,0,0
52953.6,326.221,-1787.45,0,0
54255.225,313.031,-1743.64,0,0
55556.85,302.065,-1703.05,0,0
56858.475,291.221,-1661.53,0,0
58160.1,284.108,-1625.8,0,0
59461.7,273.779,-1592.66,0,0
60763.3,262.66,-1558.34,0,0
62065,250.701,-1523.33,0,0
63366.6,247.329,-1486.65,0,0
64668.2,241.433,-1460.31,0,0
65969.8,233.722,-1430.2,0,0
67271.5,226.597,-1403.24,0,0
68573.1,218.481,-1375.69,0,0
69874.7,210.656,-1348.47,0,0
71176.3,203.655,-1321.35,0,0
72478,197.565,-1294.59,0,0
73779.6,192.141,-1268.92,0,0
75081.2,187.13,-1244.42,0,0
76382.825,181.842,-1220.49,0,0
77684.45,176.834,-1196.71,0,0
78986.075,172.225,-1173.18,0,0
80287.7,167.963,-1149.98,0,0
81589.325,164.512,-1126.92,0,0
82890.95,161.836,-1104.27,0,0
84192.575,159.78,-1082.06,0,0
85494.2,159.274,-1060.55,0,0
86795.825,159.351,-1040.81,0,0
88097.45,159.502,-1021.94,0,0
89399.075,160.558,-1004,0,0
90700.7,161.679,-989.66,0,0
92002.3,158.187,-975.803,0,0
93303.9,155.634,-958.982,0,0
94605.6,154.858,-941.132,0,0
95907.2,155.809,-925.7,0,0
97208.8,155.894,-913.031,0,0
98510.4,153.571,-898.823,0,0
99812.1,154.152,-884.628,0,0
101114,154.171,-873.639,0,0
102415,151.93,-862.506,0,0
103717,148.78,-852.307,0,0
105019,142.537,-842.059,0,0
106320.175,132.616,-826.498,0,0
107621.8,129.145,-805.079,0,0
108923.425,130.11,-786.27,0,0
110225.05,133.27,-769.077,0,0
111526.675,138.433,-755.082,0,0
112828.3,142.607,-745.667,0,0
114129.925,142.336,-737.428,0,0
115431.55,143.014,-726.222,0,0
116733.175,142.22,-719.848,0,0
118034.8,135.57,-709.502,0,0
119336.425,132.097,-693.848,0,0
120638.05,133.457,-678.217,0,0
121939.675,136.147,-668.605,0,0
123241,134.247,-657.469,0,0
124543,134.074,-645.589,0,0
125845,133.014,-634.003,0,0
127146,131.929,-621.172,0,0
128448,132.091,-607.166,0,0
129749,134.288,-593.721,0,0
131051,136.525,-581.253,0,0
132353,139.438,-569.017,0,0
133654,143.065,-557.62,0,0
134956,146.429,-547.282,0,0
136258,149.636,-537.19,0,0
137559,153.421,-528.156,0,0
138860.775,155.516,-520.703,0,0
140162.4,156.004,-511.798,0,0
141464.025,157.374,-502.084,0,0
142765.65,157.557,-493.193,0,0
144067.275,157.358,-481.884,0,0
145368.9,159.153,-470.017,0,0
146670.525,161.585,-459.778,0,0
147972.15,161.675,-449.851,0,0
149273.775,161.386,-436.818,0,0
150575.4,163.386,-422.043,0,0
151877.025,167.182,-406.776,0,0
153178.65,174.288,-393.142,0,0
154480,179.978,-381.805,0,0
155782,185.949,-368.831,0,0
157084,194.028,-357.962,0,0
158385,199.317,-348.989,0,0
159687,203.816,-338.11,0,0
160988,208.262,-326.526,0,0
162290,212.708,-313.917,0,0
163592,217.953,-300.256,0,0
164893,223.096,-286.192,0,0
166195,228.816,-269.968,0,0
167497,236.034,-252.518,0,0
168798,245.059,-233.727,0,0
170100,255.973,-214.557,0,0
171401.375,268.29,-194.391,0,0
172703.0,282.447,-172.729,0,0
174004.625,299.469,-149.361,0,0
175306.25,320.635,-124.333,0,0
176607.875,347.146,-99.099,0,0
177909.5,379.233,-75.077,0,0
179211.125,416.689,-53.4182,0,0
180512.75,458.467,-36.3339,0,0
181814.375,502.154,-21.4923,0,0
183116.0,550.647,-8.43821,0,0
184417.625,603.249,2.28081,0,0
185719.25,663.514,12.7582,0,0
187021,737.687,18.1203,0,0
188322,824.965,9.63981,0,0
189624,922.516,-18.8992,0,0
190926,1024.43,-75.3579,0,0
192227,1117.29,-163.683,0,0
193529,1189.16,-278.11,0,0
194831,1233.82,-412.406,0,0
196132,1242.17,-558.256,0,0
197434,1211.52,-700.204,0,0
198735,1147.49,-823.579,0,0
200037,1062.93,-921.4,0,0
201339,966.416,-991.845,0,0
202640.35,866.854,-1034.88,0,0
203941.975,773.996,-1055.38,0,0
205243.6,691.282,-1060.94,0,0
206545.225,617.159,-1055.67,0,0
207846.85,552.58,-1043.05,0,0
209148.475,496.682,-1025.17,0,0
210450.1,448.509,-1004.71,0,0
211751.725,405.763,-982.578,0,0
213053.35,369.204,-958.194,0,0
214354.975,338.025,-933.633,0,0
215656.6,311.332,-908.594,0,0
216958.225,288.967,-884.285,0,0
218259.85,269.738,-860.784,0,0
219561,253.213,-837.755,0,0
220863,239.069,-815.267,0,0
222165,227.371,-793.018,0,0
223466,217.939,-771.069,0,0
224768,211.046,-749.722,0,0
226070,207.033,-729.379,0,0
227371,204.677,-711.062,0,0
228673,202.942,-693.995,0,0
229974,202.374,-677.214,0,0
231276,203.364,-660.88,0,0
232578,206.218,-645.27,0,0
233879,211.116,-630.694,0,0
235180.95,217.986,-617.688,0,0
236482.575,226.727,-606.683,0,0
237784.2,236.931,-598.347,0,0
239085.825,248.101,-592.888,0,0
240387.45,259.61,-590.624,0,0
241689.075,270.505,-591.696,0,0
242990.7,280.107,-595.48,0,0
244292.325,288.763,-602.053,0,0
245593.95,294.233,-612.474,0,0
246895.575,294.506,-623.095,0,0
248197.2,292.193,-632.142,0,0
249498.825,288.542,-639.149,0,0
250800,286.482,-645.971,0,0
252102,282.933,-655.335,0,0
253404,276.42,-665.638,0,0
254705,265.841,-675.403,0,0
256007,252.082,-682.151,0,0
257309,237.345,-685.096,0,0
258610,223.133,-685.236,0,0
259912,209.803,-683.303,0,0
261213,197.321,-679.988,0,0
262515,186.006,-675.319,0,0
263817,175.834,-669.861,0,0
265118,166.77,-663.964,0,0
266420,158.669,-657.913,0,0
267721.55,151.21,-651.84,0,0
269023.175,144.319,-645.684,0,0
270324.8,137.946,-639.435,0,0
271626.425,132.133,-633.289,0,0
272928.05,126.66,-626.874,0,0
274229.675,121.658,-620.609,0,0
275531.3,116.98,-614.308,0,0
276832.925,112.643,-607.975,0,0
278134.55,108.592,-601.561,0,0
279436.175,105.048,-594.869,0,0
280737.8,102.524,-588.266,0,0
282039.425,100.6,-582.68,0,0
283341,98.2929,-577.553,0,0
284643,96.0618,-572.183,0,0
285944,94.3099,-567.107,0,0
287246,92.6487,-562.841,0,0
288548,90.4688,-558.672,0,0
289849,87.9958,-554.253,0,0
291151,85.9417,-549.749,0,0
292452,83.8007,-545.565,0,0
293754,81.6091,-541.461,0,0
295056,79.1673,-536.984,0,0
296357,76.9355,-532.108,0,0
297659,75.1867,-527.034,0,0
298960.525,74.2276,-522.28,0,0
300262.15,73.0863,-518.274,0,0
301563.775,71.5853,-514.279,0,0
302865.4,70.2318,-510.07,0,0
304167.025,69.0602,-505.872,0,0
305468.65,67.9734,-501.904,0,0
306770.275,67.014,-498.123,0,0
308071.9,65.8835,-494.378,0,0
309373.525,64.8378,-490.633,0,0
310675.15,63.787,-486.904,0,0
311976.775,62.8524,-483.308,0,0
313278.4,61.8488,-479.658,0,0
314580,60.8454,-476.092,0,0
315882,59.9451,-472.51,0,0
317183,59.0899,-469.002,0,0
318485,58.1945,-465.492,0,0
319787,57.4043,-462.006,0,0
321088,56.6671,-458.53,0,0
322390,56.0143,-455.152,0,0
323691,55.3264,-451.87,0,0
324993,54.6988,-448.565,0,0
326295,53.9975,-445.348,0,0
327596,53.2727,-441.996,0,0
328898,52.6346,-438.62,0,0
330200,52.1425,-435.307,0,0
331501.125,51.7176,-432.041,0,0
332802.75,51.3741,-428.819,0,0
334104.375,50.9624,-425.726,0,0
335406.0,50.64,-422.608,0,0
336707.625,50.3464,-419.503,0,0
338009.25,50.0082,-416.508,0,0
339310.875,49.7454,-413.48,0,0
340612.5,49.5369,-410.452,0,0
341914.125,49.3991,-407.361,0,0
343215.75,49.3904,-404.431,0,0
344517.375,49.3663,-401.699,0,0
345819.0,49.2481,-398.902,0,0
347121,49.184,-396.051,0,0
348422,49.3092,-393.31,0,0
349724,49.4777,-390.709,0,0
351025,49.6374,-388.182,0,0
352327,49.7222,-385.776,0,0
353629,49.782,-383.455,0,0
354930,49.8234,-381.246,0,0
356232,49.6937,-379.041,0,0
357534,49.4028,-376.77,0,0
358835,49.2041,-374.464,0,0
360137,48.9787,-372.176,0,0
361438,48.7408,-369.769,0,0
362740.1,48.5298,-367.321,0,0
364041.725,48.3684,-364.86,0,0
365343.35,48.2625,-362.429,0,0
366644.975,48.232,-360.02,0,0
367946.6,48.1996,-357.631,0,0
369248.225,48.1286,-355.324,0,0
370549.85,48.1005,-352.943,0,0
371851.475,48.1997,-350.614,0,0
373153.1,48.299,-348.421,0,0
374454.725,48.3268,-346.45,0,0
375756.35,48.0238,-344.386,0,0
377057.975,47.6794,-342.151,0,0
378359.6,47.3896,-339.783,0,0
379661,47.1374,-337.317,0,0
380963,47.0017,-334.753,0,0
382264,46.9775,-332.11,0,0
383566,47.2711,-329.724,0,0
384868,47.241,-327.571,0,0
386169,47.1145,-325.181,0,0
387471,47.0444,-322.751,0,0
388773,47.0105,-320.232,0,0
390074,47.0209,-317.733,0,0
391376,47.0529,-315.192,0,0
392677,47.1601,-312.619,0,0
393979,47.2424,-310.014,0,0
395280.7,47.376,-307.41,0,0
396582.325,47.5695,-304.733,0,0
397883.95,47.7719,-302.08,0,0
399185.575,48.0218,-299.366,0,0
400006.6,48.2083,-297.629,0,0