File: Accelerated corrosion test data/2025-10-17_06-00-03/sample_4.csv
Frequency (Hz),Impedance (ohms),Phase (Radians),Temperature (C),Humidity (%)
10000.0,262.26,-11922,0,0
11301.625,232.45,-10561.7,0,0
12603.25,211.916,-9474.83,0,0
13904.875,191.856,-8591.13,0,0
15206.5,179.462,-7862.98,0,0
16508.125,189.145,-7245.16,0,0
17809.75,154.627,-6736.32,0,0
19111.375,144.253,-6277.78,0,0
20413.0,139.717,-5875.72,0,0
21714.625,146.034,-5529.2,0,0
23016.25,124.349,-5228.05,0,0
24317.875,115.275,-4942.37,0,0
25619.5,111.463,-4688.36,0,0
26921.1,105.942,-4457.5,0,0
28222.7,120.294,-4254.33,0,0
29524.4,112.685,-4074.27,0,0
30826,98.2357,-3901.67,0,0
32127.6,99.6566,-3739.89,0,0
33429.2,89.2476,-3599.08,0,0
34730.9,84.4742,-3459.71,0,0
36032.5,81.2964,-3331.86,0,0
37334.1,79.4289,-3212.58,0,0
38635.7,76.5643,-3100.1,0,0
39937.4,76.6281,-2993.69,0,0
41239,80.2664,-2899.14,0,0
42540.6,78.1498,-2810.28,0,0
43842.225,73.3772,-2727.19,0,0
45143.85,70.9499,-2645.76,0,0
46445.475,69.8488,-2568.02,0,0
47747.1,69.854,-2498.27,0,0
49048.725,66.0826,-2428.64,0,0
50350.35,64.0242,-2361.03,0,0
51651.975,63.5005,-2296.25,0,0
52953.6,65.1377,-2233.02,0,0
54255.225,73.543,-2176.22,0,0
55556.85,71.8273,-2133.13,0,0
56858.475,65.4945,-2078.85,0,0
58160.1,66.2803,-2026.3,0,0
59461.7,70.2468,-1976.02,0,0
60763.3,79.3288,-1936.93,0,0
62065,69.8692,-1904.02,0,0
63366.6,63.9256,-1858.62,0,0
64668.2,64.2239,-1815.03,0,0
65969.8,66.1356,-1774.18,0,0
67271.5,70.0821,-1737.82,0,0
68573.1,73.6884,-1708.67,0,0
69874.7,66.1775,-1678.83,0,0
71176.3,64.5361,-1644.27,0,0
72478,59.192,-1612.77,0,0
73779.6,57.5715,-1576.24,0,0
75081.2,59.5677,-1543.23,0,0
76382.825,62.0811,-1514.17,0,0
77684.45,64.9476,-1486.4,0,0
78986.075,63.8624,-1464,0,0
80287.7,60.8588,-1436.99,0,0
81589.325,60.327,-1410.93,0,0
82890.95,59.1223,-1385.83,0,0
84192.575,57.8371,-1360.89,0,0
85494.2,57.0107,-1336.56,0,0
86795.825,56.1834,-1312.86,0,0
88097.45,54.7561,-1290.12,0,0
89399.075,53.3819,-1265.86,0,0
90700.7,53.2683,-1242.52,0,0
92002.3,53.5252,-1219.31,0,0
93303.9,54.8616,-1198.43,0,0
94605.6,53.5082,-1178.17,0,0
95907.2,52.9049,-1155.49,0,0
97208.8,53.6316,-1133.75,0,0
98510.4,54.8957,-1112.17,0,0
99812.1,57.3853,-1091.34,0,0
101114,61.5741,-1072.7,0,0
102415,60.9859,-1058.04,0,0
103717,58.0419,-1035.36,0,0
105019,61.7168,-1011.69,0,0
106320.175,68.2479,-991.062,0,0
107621.8,75.1121,-973.04,0,0
108923.425,83.5753,-956.191,0,0
110225.05,91.9065,-943.555,0,0
111526.675,98.1725,-932.885,0,0
112828.3,103.165,-922.994,0,0
114129.925,106.523,-914.281,0,0
115431.55,108.441,-905.889,0,0
116733.175,108.182,-897.367,0,0
118034.8,106.201,-886.611,0,0
119336.425,107.219,-872.716,0,0
120638.05,112.466,-867.65,0,0
121939.675,105.487,-861.503,0,0
123241,100.663,-849.164,0,0
124543,97.6049,-836.391,0,0
125845,95.912,-824.218,0,0
127146,92.617,-813.481,0,0
128448,87.6943,-802.145,0,0
129749,80.7557,-787.635,0,0
131051,75.6165,-769.807,0,0
132353,72.8593,-750.926,0,0
133654,71.9868,-731.941,0,0
134956,72.5269,-712.976,0,0
136258,74.4847,-694.424,0,0
137559,77.0713,-677.07,0,0
138860.775,78.9106,-658.942,0,0
140162.4,82.27,-639.896,0,0
141464.025,87.261,-620.799,0,0
142765.65,93.274,-602.476,0,0
144067.275,99.9547,-584.309,0,0
145368.9,107.352,-565.63,0,0
146670.525,116.731,-546.879,0,0
147972.15,127.472,-528.8,0,0
149273.775,139.857,-510.783,0,0
150575.4,154.328,-492.603,0,0
151877.025,172.81,-475.843,0,0
153178.65,195.092,-463.4,0,0
154480,216.986,-457.885,0,0
155782,234.2,-453.906,0,0
157084,249.524,-451.855,0,0
158385,264.659,-446.74,0,0
159687,285.429,-444.172,0,0
160988,302.163,-451.525,0,0
162290,309.461,-456.687,0,0
163592,314.56,-456.72,0,0
164893,322.466,-450.702,0,0
166195,337.208,-442.417,0,0
167497,363.835,-440.359,0,0
168798,390.947,-454.658,0,0
170100,410.657,-482.528,0,0
171401.375,409.397,-521.172,0,0
172703.0,386.155,-549.003,0,0
174004.625,352.526,-556.262,0,0
175306.25,323.973,-546.469,0,0
176607.875,304.721,-525.01,0,0
177909.5,297.425,-501.311,0,0
179211.125,296.383,-479.763,0,0
180512.75,300.179,-460.635,0,0
181814.375,304.352,-444.185,0,0
183116.0,307.445,-427.461,0,0
184417.625,311.256,-407.048,0,0
185719.25,318.954,-383.749,0,0
187021,330.419,-358.779,0,0
188322,346.953,-331.637,0,0
189624,370.359,-303.209,0,0
190926,402.564,-275.494,0,0
192227,443.683,-251.089,0,0
193529,493.657,-233.826,0,0
194831,549.492,-225.345,0,0
196132,610.021,-224.397,0,0
197434,679.307,-233.359,0,0
198735,756.408,-260.621,0,0
200037,833.961,-316.273,0,0
201339,891.316,-400.283,0,0
202640.35,917.142,-495.148,0,0
203941.975,920.637,-586.286,0,0
205243.6,899.723,-671.157,0,0
206545.225,867.558,-742.159,0,0
207846.85,824.085,-810.778,0,0
209148.475,760.007,-858.88,0,0
210450.1,697.012,-880.448,0,0
211751.725,643.458,-886.208,0,0
213053.35,602.439,-883.634,0,0
214354.975,570.998,-875.82,0,0
215656.6,553.813,-874.827,0,0
216958.225,530.798,-881.497,0,0
218259.85,507.889,-884.002,0,0
219561,486.216,-886.972,0,0
220863,462.626,-890.352,0,0
222165,439.388,-890.506,0,0
223466,417.334,-889.245,0,0
224768,396.823,-889.494,0,0
226070,372.569,-890.389,0,0
227371,345.431,-887.208,0,0
228673,317.11,-878.127,0,0
229974,292.99,-862.701,0,0
231276,273.949,-845.288,0,0
232578,259.274,-827.638,0,0
233879,247.974,-810.453,0,0
235180.95,239.264,-794.287,0,0
236482.575,231.832,-779.534,0,0
237784.2,226.063,-764.059,0,0
239085.825,224.05,-750.215,0,0
240387.45,222.971,-739.591,0,0
241689.075,221.542,-731.199,0,0
242990.7,218.93,-724.673,0,0
244292.325,214.303,-718.627,0,0
245593.95,207.816,-710.637,0,0
246895.575,202.467,-700.555,0,0
248197.2,199.576,-690.011,0,0
249498.825,197.165,-680.533,0,0
250800,195.53,-672.083,0,0
252102,192.146,-664.597,0,0
253404,186.711,-654.449,0,0
254705,183.096,-641.398,0,0
256007,180.94,-625.437,0,0
257309,183.893,-606.983,0,0
258610,192.662,-589.118,0,0
259912,207.72,-574.462,0,0
261213,225.731,-564.565,0,0
262515,246.333,-561.283,0,0
263817,268.449,-564.519,0,0
265118,287.109,-576.607,0,0
266420,299.686,-593.056,0,0
267721.55,307.568,-613.1,0,0
269023.175,306.265,-637.49,0,0
270324.8,292.439,-654.689,0,0
271626.425,281.145,-663.485,0,0
272928.05,271.268,-672.258,0,0
274229.675,258.413,-681.619,0,0
275531.3,240.162,-688.376,0,0
276832.925,219.503,-687.933,0,0
278134.55,199.329,-678.769,0,0
279436.175,188.483,-662.172,0,0
280737.8,187.437,-650.559,0,0
282039.425,185.232,-643.939,0,0
283341,184.951,-636.723,0,0
284643,184.572,-634.881,0,0
285944,180.095,-633.572,0,0
287246,173.059,-628.492,0,0
288548,167.018,-619.201,0,0
289849,167.613,-605.042,0,0
291151,176.944,-595.455,0,0
292452,189.361,-594.267,0,0
293754,198.599,-602.419,0,0
295056,199.972,-614.658,0,0
296357,192.731,-625.72,0,0
297659,181.254,-630.109,0,0
298960.525,171.174,-629.861,0,0
300262.15,162.651,-628.497,0,0
301563.775,154.198,-625.899,0,0
302865.4,146.849,-621.931,0,0
304167.025,139.823,-617.35,0,0
305468.65,133.972,-611.464,0,0
306770.275,129.701,-605.268,0,0
308071.9,127.112,-599.476,0,0
309373.525,125.401,-595.335,0,0
310675.15,122.512,-592.264,0,0
311976.775,118.865,-588.181,0,0
313278.4,115.924,-583.483,0,0
314580,114.086,-578.756,0,0
315882,112.953,-574.944,0,0
317183,111.82,-571.881,0,0
318485,110.611,-569.818,0,0
319787,108.471,-568.83,0,0
321088,104.632,-568.363,0,0
322390,98.4435,-566.855,0,0
323691,91.3235,-561.964,0,0
324993,86.5753,-554.977,0,0
326295,83.5137,-548.542,0,0
327596,80.6083,-541.881,0,0
328898,78.7832,-534.702,0,0
330200,78.3213,-527.505,0,0
331501.125,79.4161,-521.451,0,0
332802.75,80.8524,-517.266,0,0
334104.375,80.9964,-514.5,0,0
335406.0,79.6981,-511.524,0,0
336707.625,77.5164,-507.384,0,0
338009.25,75.9066,-501.659,0,0
339310.875,75.4637,-495.494,0,0
340612.5,76.3799,-488.993,0,0
341914.125,79.3522,-482.965,0,0
343215.75,83.7211,-479.114,0,0
344517.375,87.5039,-477.986,0,0
345819.0,89.5984,-478.224,0,0
347121,89.7845,-478.643,0,0
348422,88.6332,-478.517,0,0
349724,86.7521,-477.31,0,0
351025,84.7484,-475.227,0,0
352327,82.8159,-472.215,0,0
353629,81.7271,-468.441,0,0
354930,81.7777,-465.102,0,0
356232,81.5685,-462.535,0,0
357534,81.0099,-460.049,0,0
358835,79.9819,-457.329,0,0
360137,78.9094,-453.827,0,0
361438,78.4191,-449.687,0,0
362740.1,79.0417,-445.754,0,0
364041.725,79.6008,-442.526,0,0
365343.35,79.6833,-439.333,0,0
366644.975,79.7385,-434.995,0,0
367946.6,81.4035,-430.089,0,0
369248.225,84.4837,-425.585,0,0
370549.85,88.7479,-422.304,0,0
371851.475,94.1275,-420.659,0,0
373153.1,99.29,-421.957,0,0
374454.725,102.057,-425.545,0,0
375756.35,101.689,-428.39,0,0
377057.975,100.884,-429.685,0,0
378359.6,100.013,-430.573,0,0
379661,98.6854,-431.31,0,0
380963,97.0315,-431.389,0,0
382264,96.0862,-430.252,0,0
383566,97.0044,-430.951,0,0
384868,95.3737,-434.057,0,0
386169,90.5848,-435.911,0,0
387471,84.6292,-434.66,0,0
388773,80.3813,-430.418,0,0
390074,79.4855,-425.722,0,0
391376,80.3862,-424.005,0,0
392677,79.112,-425.055,0,0
393979,74.7711,-424.805,0,0
395280.7,69.9364,-422.005,0,0
396582.325,66.5098,-417.709,0,0
397883.95,63.9658,-413.187,0,0
399185.575,62.0075,-408.421,0,0
400006.6,61.171,-405.141,0,0