File: Accelerated corrosion test data/2025-10-17_06-00-03/sample_2.csv
Frequency (Hz),Impedance (ohms),Phase (Radians),Temperature (C),Humidity (%)
10000.0,227.586,-11452.3,0,0
11301.625,202.547,-10143.3,0,0
12603.25,182.45,-9106.05,0,0
13904.875,185.424,-8257.64,0,0
15206.5,163.811,-7566.76,0,0
16508.125,142.474,-6971.13,0,0
17809.75,132.469,-6462.41,0,0
19111.375,127.722,-6021.43,0,0
20413.0,117.523,-5637.76,0,0
21714.625,126.731,-5308.12,0,0
23016.25,112.145,-5011.14,0,0
24317.875,102.122,-4745.16,0,0
25619.5,96.4272,-4500.98,0,0
26921.1,94.2671,-4282.43,0,0
28222.7,89.7831,-4082.89,0,0
29524.4,93.0483,-3898.14,0,0
30826,87.0689,-3743.83,0,0
32127.6,81.4216,-3589.47,0,0
33429.2,79.4273,-3450.64,0,0
34730.9,75.2058,-3319.41,0,0
36032.5,72.6875,-3198.16,0,0
37334.1,70.6706,-3084.25,0,0
38635.7,68.613,-2979.04,0,0
39937.4,66.5784,-2879.86,0,0
41239,65.1185,-2786.97,0,0
42540.6,64.1406,-2700.12,0,0
43842.225,62.7752,-2617.99,0,0
45143.85,61.6497,-2540.08,0,0
46445.475,60.8726,-2467.66,0,0
47747.1,60.0261,-2398.1,0,0
49048.725,60.5456,-2333.91,0,0
50350.35,57.4903,-2271.77,0,0
51651.975,56.3529,-2212.42,0,0
52953.6,54.7585,-2155.21,0,0
54255.225,54.0004,-2100.32,0,0
55556.85,53.7215,-2048.26,0,0
56858.475,53.6413,-1998.36,0,0
58160.1,53.9673,-1951.05,0,0
59461.7,54.4341,-1904.96,0,0
60763.3,56.0979,-1862.33,0,0
62065,58.7933,-1823.9,0,0
63366.6,55.2934,-1787.03,0,0
64668.2,53.0038,-1748.96,0,0
65969.8,50.593,-1709.77,0,0
67271.5,51.1945,-1672.29,0,0
68573.1,53.2518,-1638.25,0,0
69874.7,55.7441,-1607.91,0,0
71176.3,52.3063,-1579.77,0,0
72478,47.8031,-1549.24,0,0
73779.6,45.0242,-1516.25,0,0
75081.2,45.1227,-1483.84,0,0
76382.825,46.7676,-1453.39,0,0
77684.45,49.5583,-1425.03,0,0
78986.075,52.9043,-1400.76,0,0
80287.7,51.6934,-1379.26,0,0
81589.325,49.1378,-1354.14,0,0
82890.95,47.9817,-1328.37,0,0
84192.575,48.6466,-1303.56,0,0
85494.2,49.3477,-1280.02,0,0
86795.825,50.388,-1257.96,0,0
88097.45,50.968,-1236.6,0,0
89399.075,51.2239,-1215.05,0,0
90700.7,51.3503,-1194.91,0,0
92002.3,52.9327,-1173.68,0,0
93303.9,55.2057,-1154.84,0,0
94605.6,55.2982,-1138.23,0,0
95907.2,54.1805,-1118.61,0,0
97208.8,57.7464,-1101.29,0,0
98510.4,57.5578,-1087.48,0,0
99812.1,53.4003,-1072.87,0,0
101114,50.5045,-1055.43,0,0
102415,46.8901,-1035.23,0,0
103717,45.9558,-1014.13,0,0
105019,49.2129,-993.807,0,0
106320.175,53.9122,-976.664,0,0
107621.8,57.4758,-964.648,0,0
108923.425,55.9979,-952.583,0,0
110225.05,52.7776,-937.396,0,0
111526.675,51.345,-919.557,0,0
112828.3,51.9365,-901.967,0,0
114129.925,53.5415,-884.784,0,0
115431.55,56.2599,-868.134,0,0
116733.175,59.7316,-852.667,0,0
118034.8,63.8352,-838.446,0,0
119336.425,67.6241,-826.453,0,0
120638.05,69.9386,-815.847,0,0
121939.675,69.5619,-804.828,0,0
123241,68.7849,-791.857,0,0
124543,68.268,-778.211,0,0
125845,68.3987,-763.324,0,0
127146,69.8995,-748.173,0,0
128448,72.8897,-733.659,0,0
129749,75.7964,-720.699,0,0
131051,78.5261,-707.904,0,0
132353,79.9571,-695.945,0,0
133654,81.0699,-682.308,0,0
134956,82.2789,-668.346,0,0
136258,84.4377,-653.192,0,0
137559,87.4168,-638.093,0,0
138860.775,90.6639,-623.09,0,0
140162.4,93.9114,-606.991,0,0
141464.025,99.279,-588.359,0,0
142765.65,108.547,-570.704,0,0
144067.275,118.797,-555.292,0,0
145368.9,129.994,-539.965,0,0
146670.525,143.124,-525.573,0,0
147972.15,158.58,-511.482,0,0
149273.775,178.932,-498.525,0,0
150575.4,205.801,-494.437,0,0
151877.025,228.276,-504.628,0,0
153178.65,237.501,-519.083,0,0
154480,236.815,-530.396,0,0
155782,233.087,-533.729,0,0
157084,227.414,-534.234,0,0
158385,223.268,-527.039,0,0
159687,224.458,-521.058,0,0
160988,224.262,-516.01,0,0
162290,230.612,-510.776,0,0
163592,227.755,-516.995,0,0
164893,214.771,-514.465,0,0
166195,201.525,-501.453,0,0
167497,194.082,-482.05,0,0
168798,191.722,-459.977,0,0
170100,193.565,-437.716,0,0
171401.375,198.223,-415.501,0,0
172703.0,206.899,-392.05,0,0
174004.625,219.05,-368.291,0,0
175306.25,237.936,-344.337,0,0
176607.875,262.946,-327.173,0,0
177909.5,289.287,-315.474,0,0
179211.125,312.767,-314.641,0,0
180512.75,323.335,-314.574,0,0
181814.375,328.203,-300.262,0,0
183116.0,344.261,-279.701,0,0
184417.625,367.742,-256.557,0,0
185719.25,402.401,-237.097,0,0
187021,439.808,-225.357,0,0
188322,481.798,-216.342,0,0
189624,522.623,-215.147,0,0
190926,567.909,-209.754,0,0
192227,626.078,-208.464,0,0
193529,698.68,-222.976,0,0
194831,770.999,-268.504,0,0
196132,823.483,-331.545,0,0
197434,862.053,-398.232,0,0
198735,895.032,-476.984,0,0
200037,902.427,-562.577,0,0
201339,894.115,-650.78,0,0
202640.35,859.31,-729.449,0,0
203941.975,808.446,-792.864,0,0
205243.6,756.164,-840.471,0,0
206545.225,691.485,-869.384,0,0
207846.85,637.983,-877.684,0,0
209148.475,600.768,-881.677,0,0
210450.1,562.358,-895.671,0,0
211751.725,515.229,-899.482,0,0
213053.35,474.549,-888.746,0,0
214354.975,442.661,-874.757,0,0
215656.6,417.373,-859.704,0,0
216958.225,397.238,-843.408,0,0
218259.85,382.942,-827.957,0,0
219561,372.505,-813.462,0,0
220863,365.844,-801.904,0,0
222165,362.081,-792.077,0,0
223466,361.102,-787.536,0,0
224768,357.248,-786.091,0,0
226070,352.49,-784.521,0,0
227371,350.392,-783.762,0,0
228673,349.187,-788.659,0,0
229974,342.319,-798.702,0,0
231276,328.62,-807.161,0,0
232578,312.329,-811.81,0,0
233879,294.686,-813.343,0,0
235180.95,277.006,-811.555,0,0
236482.575,260.329,-808.28,0,0
237784.2,243.375,-803.146,0,0
239085.825,227.608,-795.365,0,0
240387.45,213.49,-785.797,0,0
241689.075,201.955,-775.725,0,0
242990.7,192.038,-765.492,0,0
244292.325,183.815,-756.839,0,0
245593.95,175.16,-749.494,0,0
246895.575,164.106,-743.163,0,0
248197.2,150.936,-732.716,0,0
249498.825,139.693,-719.148,0,0
250800,130.553,-703.71,0,0
252102,124.716,-686.415,0,0
253404,122.388,-670.164,0,0
254705,121.403,-654.787,0,0
256007,122.105,-638.967,0,0
257309,126.411,-624.207,0,0
258610,132.253,-612.004,0,0
259912,139.195,-601.238,0,0
261213,147.838,-592.764,0,0
262515,156.815,-587.244,0,0
263817,165.618,-584.38,0,0
265118,172.829,-584.235,0,0
266420,177.686,-585.207,0,0
267721.55,181.255,-586.418,0,0
269023.175,182.499,-587.863,0,0
270324.8,182.261,-586.603,0,0
271626.425,184.383,-582.906,0,0
272928.05,189.856,-579.563,0,0
274229.675,199.346,-579.069,0,0
275531.3,211.308,-585.821,0,0
276832.925,217.055,-602.756,0,0
278134.55,210.756,-618.801,0,0
279436.175,199.867,-629.274,0,0
280737.8,186.83,-635.492,0,0
282039.425,173.819,-638.018,0,0
283341,158.714,-637.303,0,0
284643,147.695,-631.542,0,0
285944,135.587,-627.761,0,0
287246,121.894,-617.068,0,0
288548,114.186,-600.444,0,0
289849,115.533,-581.264,0,0
291151,126.904,-567.904,0,0
292452,142.41,-566.229,0,0
293754,149.014,-575.811,0,0
295056,145.922,-580.275,0,0
296357,147.442,-580.284,0,0
297659,148.673,-589.912,0,0
298960.525,139.397,-596.792,0,0
300262.15,129.385,-597.829,0,0
301563.775,120.715,-594.591,0,0
302865.4,116.505,-591.074,0,0
304167.025,112.373,-590.896,0,0
305468.65,105.21,-590.949,0,0
306770.275,96.5207,-588.359,0,0
308071.9,88.5735,-583.398,0,0
309373.525,82.1701,-577.1,0,0
310675.15,77.2053,-570.779,0,0
311976.775,72.8642,-564.47,0,0
313278.4,69.1132,-557.915,0,0
314580,66.0923,-551.413,0,0
315882,63.652,-545.132,0,0
317183,61.6393,-538.683,0,0
318485,60.373,-532.48,0,0
319787,59.4277,-526.868,0,0
321088,58.4093,-521.397,0,0
322390,57.4308,-515.851,0,0
323691,56.617,-510.049,0,0
324993,56.5665,-503.426,0,0
326295,58.6874,-496.91,0,0
327596,62.0817,-493.069,0,0
328898,64.3574,-490.787,0,0
330200,65.9044,-489.138,0,0
331501.125,66.766,-488.36,0,0
332802.75,66.0318,-488.066,0,0
334104.375,63.6655,-486.932,0,0
335406.0,61.1386,-484.23,0,0
336707.625,59.1698,-480.859,0,0
338009.25,57.4331,-477.012,0,0
339310.875,56.1213,-473.082,0,0
340612.5,55.139,-468.787,0,0
341914.125,54.5578,-464.334,0,0
343215.75,54.4579,-459.974,0,0
344517.375,54.7351,-455.579,0,0
345819.0,55.5282,-451.385,0,0
347121,56.6818,-447.593,0,0
348422,58.0969,-444.138,0,0
349724,59.7479,-441.032,0,0
351025,61.41,-438.56,0,0
352327,62.8077,-436.519,0,0
353629,63.8788,-434.545,0,0
354930,64.9604,-432.48,0,0
356232,66.3029,-430.571,0,0
357534,67.7703,-428.864,0,0
358835,69.6162,-427.815,0,0
360137,71.054,-427.686,0,0
361438,71.5733,-427.976,0,0
362740.1,71.3231,-428.178,0,0
364041.725,70.5955,-428.003,0,0
365343.35,69.4971,-427.446,0,0
366644.975,68.2987,-426.396,0,0
367946.6,67.4796,-424.72,0,0
369248.225,67.4688,-423.493,0,0
370549.85,66.9569,-423.182,0,0
371851.475,65.5343,-422.458,0,0
373153.1,64.3161,-421.312,0,0
374454.725,63.103,-420.164,0,0
375756.35,61.6401,-419.176,0,0
377057.975,60.0513,-417.783,0,0
378359.6,58.5623,-416.609,0,0
379661,55.7729,-415.374,0,0
380963,53.2249,-411.744,0,0
382264,53.2515,-408.726,0,0
383566,52.3671,-407.534,0,0
384868,50.2881,-405.731,0,0
386169,48.1036,-403.011,0,0
387471,46.5195,-399.594,0,0
388773,45.5368,-396.117,0,0
390074,45.0555,-392.638,0,0
391376,45.2277,-389.837,0,0
392677,44.8074,-387.998,0,0
393979,43.2402,-385.663,0,0
395280.7,41.6712,-382.23,0,0
396582.325,40.8586,-378.205,0,0
397883.95,40.7549,-374.141,0,0
399185.575,41.2447,-370.348,0,0
400006.6,41.7008,-368.177,0,0