File: Accelerated corrosion test data/2025-10-17_06-00-03/sample_7.csv
Frequency (Hz),Impedance (ohms),Phase (Radians),Temperature (C),Humidity (%)
10000.0,272.629,-12103.1,0,0
11301.625,246.209,-10706.7,0,0
12603.25,256.754,-9653.88,0,0
13904.875,208.636,-8759.19,0,0
15206.5,195.032,-8021.92,0,0
16508.125,170.817,-7379.74,0,0
17809.75,170.619,-6824.35,0,0
19111.375,180.079,-6381.61,0,0
20413.0,168.741,-5988.15,0,0
21714.625,157.192,-5647.11,0,0
23016.25,130.275,-5323.45,0,0
24317.875,122.628,-5029.62,0,0
25619.5,119.133,-4765.12,0,0
26921.1,121.839,-4520.35,0,0
28222.7,177.313,-4306.87,0,0
29524.4,140.156,-4178.48,0,0
30826,131.858,-3992.39,0,0
32127.6,117.407,-3845.21,0,0
33429.2,101.525,-3694.72,0,0
34730.9,92.3185,-3549.44,0,0
36032.5,88.4275,-3415.54,0,0
37334.1,86.0215,-3291.94,0,0
38635.7,86.6138,-3174.35,0,0
39937.4,98.264,-3074.7,0,0
41239,86.8632,-2987.6,0,0
42540.6,80.0672,-2891.49,0,0
43842.225,78.9654,-2802.47,0,0
45143.85,80.2308,-2724.4,0,0
46445.475,77.3009,-2652.27,0,0
47747.1,70.6704,-2575.63,0,0
49048.725,67.9368,-2505.33,0,0
50350.35,66.0524,-2438.19,0,0
51651.975,64.3646,-2374.49,0,0
52953.6,63.7008,-2313.92,0,0
54255.225,62.1118,-2257.15,0,0
55556.85,60.8826,-2202.4,0,0
56858.475,60.1868,-2149.93,0,0
58160.1,59.2472,-2099.38,0,0
59461.7,59.2926,-2051.91,0,0
60763.3,58.9287,-2008,0,0
62065,56.8034,-1964.67,0,0
63366.6,55.622,-1921.68,0,0
64668.2,54.9782,-1881.24,0,0
65969.8,54.9279,-1842.68,0,0
67271.5,53.1258,-1805.77,0,0
68573.1,52.0453,-1769.1,0,0
69874.7,51.3512,-1733.71,0,0
71176.3,51.175,-1700,0,0
72478,50.2128,-1667.75,0,0
73779.6,49.352,-1635.95,0,0
75081.2,48.8259,-1605.13,0,0
76382.825,48.2666,-1575.32,0,0
77684.45,48.0082,-1546.44,0,0
78986.075,47.6858,-1518.43,0,0
80287.7,47.5043,-1491.36,0,0
81589.325,47.1269,-1465.09,0,0
82890.95,46.9099,-1439.48,0,0
84192.575,46.895,-1414.25,0,0
85494.2,47.1733,-1390.2,0,0
86795.825,47.1798,-1366.77,0,0
88097.45,47.3359,-1344.07,0,0
89399.075,46.8456,-1321.84,0,0
90700.7,47.0472,-1299.53,0,0
92002.3,47.3702,-1277.74,0,0
93303.9,48.0322,-1256.68,0,0
94605.6,50.0047,-1236.77,0,0
95907.2,49.8646,-1218.9,0,0
97208.8,49.286,-1199.35,0,0
98510.4,50.1446,-1179.95,0,0
99812.1,49.737,-1161.36,0,0
101114,51.2614,-1142.2,0,0
102415,52.8806,-1124.14,0,0
103717,55.7293,-1107.45,0,0
105019,56.5725,-1092.28,0,0
106320.175,56.0722,-1076.2,0,0
107621.8,57.0316,-1059.84,0,0
108923.425,58.1714,-1043.5,0,0
110225.05,58.7514,-1026.83,0,0
111526.675,61.8533,-1009.9,0,0
112828.3,66.524,-993.658,0,0
114129.925,71.737,-979.718,0,0
115431.55,77.91,-967.071,0,0
116733.175,85.993,-958.52,0,0
118034.8,89.7741,-953.639,0,0
119336.425,92.5141,-951.149,0,0
120638.05,85.3851,-951.183,0,0
121939.675,74.7551,-940.764,0,0
123241,67.2563,-927.788,0,0
124543,62.9594,-913.019,0,0
125845,58.9311,-899.1,0,0
127146,55.5185,-884.419,0,0
128448,53.8718,-869.492,0,0
129749,52.3174,-854.931,0,0
131051,51.0676,-840.53,0,0
132353,50.3076,-825.194,0,0
133654,50.7715,-809.567,0,0
134956,53.3845,-794.667,0,0
136258,58.0075,-781.781,0,0
137559,58.6573,-774.093,0,0
138860.775,56.1269,-761.75,0,0
140162.4,56.3981,-747.824,0,0
141464.025,56.258,-734.372,0,0
142765.65,57.3876,-719.868,0,0
144067.275,60.1358,-706.39,0,0
145368.9,61.8197,-694.15,0,0
146670.525,62.911,-681.057,0,0
147972.15,64.5461,-667.625,0,0
149273.775,65.1761,-654.707,0,0
150575.4,65.5665,-639.036,0,0
151877.025,67.705,-621.634,0,0
153178.65,72.0202,-603.625,0,0
154480,78.0882,-585.42,0,0
155782,86.5642,-567.124,0,0
157084,97.6861,-549.881,0,0
158385,111.282,-535.731,0,0
159687,121.743,-526.525,0,0
160988,125.897,-512.841,0,0
162290,134.215,-488.881,0,0
163592,152.356,-463.576,0,0
164893,179.097,-442.756,0,0
166195,208.828,-421.373,0,0
167497,256.282,-403.902,0,0
168798,317.29,-406.51,0,0
170100,374.494,-438.779,0,0
171401.375,413.323,-493.825,0,0
172703.0,427.378,-560.485,0,0
174004.625,397.244,-625.51,0,0
175306.25,346.799,-642.434,0,0
176607.875,323.084,-631.247,0,0
177909.5,329.829,-629.363,0,0
179211.125,332.869,-665.203,0,0
180512.75,300.19,-687.703,0,0
181814.375,262.073,-701.304,0,0
183116.0,218.255,-693.624,0,0
184417.625,187.731,-671.715,0,0
185719.25,168.003,-648.555,0,0
187021,153.24,-621.454,0,0
188322,149.204,-596.403,0,0
189624,143.31,-578.327,0,0
190926,137.422,-556.002,0,0
192227,136.176,-531.941,0,0
193529,138.003,-507.171,0,0
194831,143.81,-482.633,0,0
196132,154.646,-461.229,0,0
197434,166.436,-443.117,0,0
198735,175.49,-426.748,0,0
200037,184.524,-406.458,0,0
201339,198.778,-383.406,0,0
202640.35,219.415,-358.478,0,0
203941.975,247.425,-337.112,0,0
205243.6,281.881,-318.263,0,0
206545.225,327.12,-312.18,0,0
207846.85,362.54,-318.113,0,0
209148.475,399.526,-314.377,0,0
210450.1,458.068,-325.21,0,0
211751.725,504.973,-370.609,0,0
213053.35,527.914,-422.769,0,0
214354.975,533.838,-468.925,0,0
215656.6,529.38,-510.799,0,0
216958.225,525.825,-550.034,0,0
218259.85,503.05,-589.349,0,0
219561,468.121,-616.514,0,0
220863,432.878,-618.129,0,0
222165,412.191,-608.068,0,0
223466,406.43,-599.798,0,0
224768,402.994,-596.667,0,0
226070,405.568,-589.279,0,0
227371,416.604,-592.649,0,0
228673,429.152,-604.993,0,0
229974,433.846,-626.696,0,0
231276,432.029,-656.018,0,0
232578,420.006,-684.007,0,0
233879,392.423,-714.248,0,0
235180.95,349.052,-726.94,0,0
236482.575,313.795,-715.836,0,0
237784.2,290.004,-706.421,0,0
239085.825,265.637,-688.364,0,0
240387.45,261.406,-667.925,0,0
241689.075,254.675,-662.97,0,0
242990.7,239.949,-652.563,0,0
244292.325,231.809,-633.619,0,0
245593.95,235.231,-619.507,0,0
246895.575,234.603,-612.016,0,0
248197.2,232.499,-601.645,0,0
249498.825,233.699,-589.827,0,0
250800,238.988,-578.203,0,0
252102,248.906,-569.674,0,0
253404,263.783,-568.183,0,0
254705,273.458,-577.361,0,0
256007,273.963,-588.517,0,0
257309,268.135,-595.41,0,0
258610,261.295,-596.334,0,0
259912,257.116,-596.714,0,0
261213,250.907,-593.772,0,0
262515,249.61,-586.721,0,0
263817,256.354,-584.087,0,0
265118,260.023,-590.132,0,0
266420,257.461,-594.293,0,0
267721.55,256.459,-598.141,0,0
269023.175,251.946,-601.117,0,0
270324.8,250.77,-599.738,0,0
271626.425,257.958,-601.958,0,0
272928.05,266.1,-621.871,0,0
274229.675,251.429,-650.579,0,0
275531.3,218.705,-666.761,0,0
276832.925,181.739,-661.599,0,0
278134.55,154.865,-640.781,0,0
279436.175,142.572,-617.186,0,0
280737.8,138.849,-596.592,0,0
282039.425,138.414,-583.212,0,0
283341,134.939,-569.751,0,0
284643,135.893,-553.486,0,0
285944,141.85,-540.562,0,0
287246,148.316,-533.03,0,0
288548,151.032,-527.25,0,0
289849,153.788,-518.908,0,0
291151,159.222,-509.79,0,0
292452,166.477,-503.189,0,0
293754,174.528,-497.594,0,0
295056,183.21,-493.1,0,0
296357,193.786,-489.762,0,0
297659,206.542,-488.913,0,0
298960.525,219.881,-492.254,0,0
300262.15,233.649,-498.713,0,0
301563.775,248.534,-510.508,0,0
302865.4,260.998,-533.748,0,0
304167.025,256.84,-563.378,0,0
305468.65,241.471,-584.507,0,0
306770.275,221.507,-598.288,0,0
308071.9,200.439,-603.943,0,0
309373.525,180.409,-603.233,0,0
310675.15,164.929,-597.348,0,0
311976.775,153.467,-591.188,0,0
313278.4,143.315,-585.067,0,0
314580,134.001,-577.388,0,0
315882,127.944,-568.31,0,0
317183,124.667,-560.871,0,0
318485,121.968,-554.897,0,0
319787,119.768,-549.633,0,0
321088,117.72,-545.588,0,0
322390,115.279,-541.87,0,0
323691,112.766,-538.488,0,0
324993,109.881,-534.857,0,0
326295,107.99,-531.239,0,0
327596,105.866,-528.909,0,0
328898,102.767,-526.63,0,0
330200,99.3756,-523.994,0,0
331501.125,95.7777,-521.454,0,0
332802.75,91.4127,-518.866,0,0
334104.375,86.3307,-515.143,0,0
335406.0,81.5018,-510.428,0,0
336707.625,76.993,-504.881,0,0
338009.25,73.2833,-498.5,0,0
339310.875,70.4102,-491.886,0,0
340612.5,68.0412,-485.086,0,0
341914.125,66.6243,-478.05,0,0
343215.75,66.2419,-471.15,0,0
344517.375,66.8105,-464.896,0,0
345819.0,67.8258,-459.807,0,0
347121,68.3473,-455.751,0,0
348422,67.7416,-451.795,0,0
349724,66.7725,-446.906,0,0
351025,66.231,-441.29,0,0
352327,66.8385,-434.91,0,0
353629,68.929,-429.245,0,0
354930,71.5101,-424.957,0,0
356232,73.9293,-422.189,0,0
357534,74.5618,-420.291,0,0
358835,73.6401,-416.99,0,0
360137,73.3834,-412.017,0,0
361438,74.4884,-406.485,0,0
362740.1,76.8605,-401.467,0,0
364041.725,79.643,-397.188,0,0
365343.35,83.2,-393.526,0,0
366644.975,86.7503,-391.434,0,0
367946.6,89.5411,-389.724,0,0
369248.225,92.1188,-388.621,0,0
370549.85,93.9128,-388.555,0,0
371851.475,93.4095,-388.126,0,0
373153.1,92.6782,-385.38,0,0
374454.725,93.3584,-381.812,0,0
375756.35,94.9237,-378.798,0,0
377057.975,96.1098,-376.397,0,0
378359.6,97.0722,-373.135,0,0
379661,99.052,-369.606,0,0
380963,101.573,-366.749,0,0
382264,103.948,-364.006,0,0
383566,106.833,-361.347,0,0
384868,109.971,-359.096,0,0
386169,112.743,-357.376,0,0
387471,115.486,-355.362,0,0
388773,118.375,-352.658,0,0
390074,123.157,-350.102,0,0
391376,128.231,-349.322,0,0
392677,132.68,-349.082,0,0
393979,136.8,-348.986,0,0
395280.7,141.354,-348.097,0,0
396582.325,147.935,-347.478,0,0
397883.95,156.503,-349.223,0,0
399185.575,165.528,-355.019,0,0
400006.6,170.207,-361.332,0,0