File: Accelerated corrosion test data/2025-10-17_06-00-03/sample_1.csv
Frequency (Hz),Impedance (ohms),Phase (Radians),Temperature (C),Humidity (%)
10000.0,240.778,-12221.4,0,0
11301.625,213.602,-10824.4,0,0
12603.25,194.097,-9722.61,0,0
13904.875,181.122,-8797.39,0,0
15206.5,185.139,-8062.97,0,0
16508.125,154.461,-7438.47,0,0
17809.75,146.376,-6902.87,0,0
19111.375,135.021,-6432.97,0,0
20413.0,154.537,-5988.95,0,0
21714.625,135.734,-5670.93,0,0
23016.25,122.057,-5368.84,0,0
24317.875,112.396,-5076.12,0,0
25619.5,104.32,-4811.01,0,0
26921.1,113.821,-4561.02,0,0
28222.7,109.779,-4358.29,0,0
29524.4,107.034,-4192.22,0,0
30826,100.543,-4004.25,0,0
32127.6,97.1101,-3846.46,0,0
33429.2,88.7581,-3702.57,0,0
34730.9,81.7597,-3560.39,0,0
36032.5,77.3785,-3429.24,0,0
37334.1,74.8101,-3306.6,0,0
38635.7,72.9038,-3192.99,0,0
39937.4,70.6385,-3085.93,0,0
41239,71.7903,-2987.07,0,0
42540.6,69.8634,-2894.74,0,0
43842.225,67.3426,-2807.53,0,0
45143.85,68.0682,-2726.27,0,0
46445.475,65.0533,-2649.72,0,0
47747.1,63.6879,-2575.79,0,0
49048.725,61.2109,-2505.42,0,0
50350.35,59.3255,-2438.96,0,0
51651.975,58.6919,-2375.39,0,0
52953.6,57.4001,-2314.26,0,0
54255.225,56.5802,-2257.31,0,0
55556.85,55.6824,-2201.64,0,0
56858.475,54.6975,-2148.51,0,0
58160.1,54.4036,-2097.9,0,0
59461.7,54.1962,-2049.89,0,0
60763.3,54.263,-2003.91,0,0
62065,52.9351,-1960.05,0,0
63366.6,52.28,-1916.28,0,0
64668.2,52.7326,-1874.11,0,0
65969.8,54.9972,-1836.39,0,0
67271.5,53.5801,-1799.8,0,0
68573.1,52.9869,-1764.03,0,0
69874.7,52.0714,-1730.1,0,0
71176.3,50.2695,-1695.47,0,0
72478,48.3445,-1661.73,0,0
73779.6,47.8929,-1628.32,0,0
75081.2,48.3925,-1595.91,0,0
76382.825,49.0418,-1564.87,0,0
77684.45,50.1637,-1535.48,0,0
78986.075,51.7293,-1507.88,0,0
80287.7,51.0602,-1481.42,0,0
81589.325,50.4016,-1453.46,0,0
82890.95,51.1643,-1426.65,0,0
84192.575,52.5077,-1400.47,0,0
85494.2,54.8189,-1375.7,0,0
86795.825,55.7971,-1352.63,0,0
88097.45,56.0092,-1329.3,0,0
89399.075,57.904,-1304.47,0,0
90700.7,61.2381,-1281.3,0,0
92002.3,67.6623,-1260.08,0,0
93303.9,74.8712,-1243.16,0,0
94605.6,73.8198,-1236.24,0,0
95907.2,67.0204,-1217.51,0,0
97208.8,64.8625,-1196.95,0,0
98510.4,64.2319,-1176.21,0,0
99812.1,63.341,-1156.76,0,0
101114,63.2565,-1136.49,0,0
102415,63.484,-1114.93,0,0
103717,68.2526,-1093.55,0,0
105019,75.214,-1076.26,0,0
106320.175,81.3337,-1059.87,0,0
107621.8,87.9429,-1047.52,0,0
108923.425,92.1637,-1036.94,0,0
110225.05,94.1064,-1028.6,0,0
111526.675,94.1895,-1015.88,0,0
112828.3,96.4212,-1006.39,0,0
114129.925,95.1264,-998.548,0,0
115431.55,91.6913,-988.806,0,0
116733.175,87.1684,-976.649,0,0
118034.8,82.9261,-962.335,0,0
119336.425,81.2078,-946.669,0,0
120638.05,81.5548,-932.367,0,0
121939.675,80.3975,-919.672,0,0
123241,79.0505,-905.222,0,0
124543,78.9587,-890.11,0,0
125845,79.6851,-875.407,0,0
127146,81.013,-861.117,0,0
128448,83.051,-846.583,0,0
129749,85.5279,-832.673,0,0
131051,90.3011,-819.299,0,0
132353,94.6989,-808.855,0,0
133654,97.4088,-798.352,0,0
134956,100.244,-787.67,0,0
136258,103.078,-777.006,0,0
137559,108.049,-767.246,0,0
138860.775,110.183,-761.054,0,0
140162.4,109.866,-752.642,0,0
141464.025,109.571,-742.477,0,0
142765.65,110.08,-731.538,0,0
144067.275,111.526,-720.004,0,0
145368.9,114.069,-708.755,0,0
146670.525,117.121,-698.7,0,0
147972.15,119.622,-690.03,0,0
149273.775,120.855,-679.133,0,0
150575.4,123.255,-670.676,0,0
151877.025,121.765,-659.701,0,0
153178.65,121.497,-644.625,0,0
154480,125.69,-627.734,0,0
155782,133.167,-611.341,0,0
157084,145.236,-596.512,0,0
158385,158.035,-587.335,0,0
159687,167.386,-576.417,0,0
160988,185.545,-565.574,0,0
162290,205.095,-564.774,0,0
163592,216.748,-568.328,0,0
164893,228.374,-570.356,0,0
166195,240.661,-576.348,0,0
167497,246.541,-587.46,0,0
168798,245.621,-598.943,0,0
170100,236.538,-605.913,0,0
171401.375,227.657,-603.559,0,0
172703.0,223.969,-598.058,0,0
174004.625,220.652,-594.147,0,0
175306.25,219.359,-588.606,0,0
176607.875,219.037,-585.406,0,0
177909.5,217.836,-582.189,0,0
179211.125,213.651,-580.626,0,0
180512.75,206.904,-576.759,0,0
181814.375,199.684,-568.3,0,0
183116.0,193.455,-557.661,0,0
184417.625,188.351,-544.387,0,0
185719.25,186.528,-527.779,0,0
187021,187.768,-512.773,0,0
188322,191.468,-497.159,0,0
189624,195.658,-483.058,0,0
190926,199.934,-468.223,0,0
192227,205.33,-451.754,0,0
193529,214.008,-434.512,0,0
194831,224.483,-417.643,0,0
196132,237.644,-400.006,0,0
197434,253.472,-382.921,0,0
198735,273.449,-366.399,0,0
200037,294.768,-351.256,0,0
201339,321.409,-335.116,0,0
202640.35,356.177,-320.206,0,0
203941.975,398.981,-314.084,0,0
205243.6,450.437,-321.374,0,0
206545.225,495.852,-349.137,0,0
207846.85,524.895,-388.031,0,0
209148.475,539.268,-427.731,0,0
210450.1,538.849,-465.274,0,0
211751.725,527.199,-484.262,0,0
213053.35,524.559,-487.71,0,0
214354.975,537.02,-494.746,0,0
215656.6,549.589,-508.677,0,0
216958.225,559.271,-525.129,0,0
218259.85,571.492,-541.12,0,0
219561,586.007,-558.227,0,0
220863,605.335,-583.934,0,0
222165,622.923,-621.696,0,0
223466,627.894,-670.878,0,0
224768,617.926,-719.894,0,0
226070,596.959,-766.307,0,0
227371,565.852,-807.417,0,0
228673,523.972,-840.156,0,0
229974,478.059,-857.767,0,0
231276,434.136,-862.789,0,0
232578,397.512,-858.969,0,0
233879,369.379,-852.721,0,0
235180.95,345.278,-848.074,0,0
236482.575,320.483,-843.812,0,0
237784.2,296.681,-836.912,0,0
239085.825,274.639,-827.368,0,0
240387.45,255.368,-816.218,0,0
241689.075,238.652,-804.939,0,0
242990.7,223.74,-792.491,0,0
244292.325,211.599,-780.843,0,0
245593.95,199.758,-770.158,0,0
246895.575,188.055,-758.858,0,0
248197.2,177.663,-746.137,0,0
249498.825,169.382,-733.477,0,0
250800,162.32,-721.213,0,0
252102,155.947,-709.098,0,0
253404,150.301,-696.768,0,0
254705,146.305,-683.763,0,0
256007,144.206,-671.543,0,0
257309,142.659,-659.894,0,0
258610,142.113,-648.256,0,0
259912,143.794,-636.376,0,0
261213,148.047,-626.492,0,0
262515,153.042,-619.04,0,0
263817,158.714,-613.668,0,0
265118,164.596,-610.566,0,0
266420,171.112,-611.042,0,0
267721.55,173.946,-617.079,0,0
269023.175,169.61,-623.522,0,0
270324.8,159.665,-625.548,0,0
271626.425,149.311,-620.899,0,0
272928.05,142.549,-612.154,0,0
274229.675,139.963,-602.917,0,0
275531.3,139.881,-595.104,0,0
276832.925,140.677,-588.649,0,0
278134.55,142.665,-583.612,0,0
279436.175,144.578,-580.692,0,0
280737.8,145.263,-579.262,0,0
282039.425,144.434,-578.662,0,0
283341,141.016,-576.971,0,0
284643,138.072,-573.096,0,0
285944,135.75,-569.341,0,0
287246,132.095,-564.999,0,0
288548,129.305,-556.893,0,0
289849,131.381,-548.758,0,0
291151,134.964,-544.707,0,0
292452,136.479,-542.518,0,0
293754,135.444,-539.917,0,0
295056,134.179,-534.117,0,0
296357,136.428,-526.527,0,0
297659,141.524,-521.412,0,0
298960.525,146.459,-518.088,0,0
300262.15,151.518,-515.767,0,0
301563.775,157.532,-513.724,0,0
302865.4,165.089,-514.75,0,0
304167.025,170.41,-518.6,0,0
305468.65,174.237,-522.895,0,0
306770.275,177.765,-528.428,0,0
308071.9,178.609,-535.984,0,0
309373.525,176.478,-542.32,0,0
310675.15,174.783,-547.802,0,0
311976.775,171.44,-554.781,0,0
313278.4,164.516,-560.969,0,0
314580,156.265,-564.167,0,0
315882,148.473,-565.527,0,0
317183,140.487,-566.07,0,0
318485,132.44,-564.934,0,0
319787,124.698,-562.708,0,0
321088,117.517,-559.087,0,0
322390,111.462,-554.456,0,0
323691,106.573,-548.852,0,0
324993,103.533,-543.34,0,0
326295,101.71,-538.569,0,0
327596,100.583,-534.943,0,0
328898,99.29,-532.492,0,0
330200,97.4461,-530.693,0,0
331501.125,94.9005,-529.157,0,0
332802.75,91.6324,-527.263,0,0
334104.375,87.9643,-525.017,0,0
335406.0,84.1212,-522.043,0,0
336707.625,80.5084,-518.508,0,0
338009.25,77.3336,-514.682,0,0
339310.875,74.3604,-510.583,0,0
340612.5,71.813,-506.388,0,0
341914.125,69.6743,-502.362,0,0
343215.75,67.5208,-498.45,0,0
344517.375,65.3467,-494.325,0,0
345819.0,63.2526,-490.041,0,0
347121,61.3318,-485.543,0,0
348422,59.9387,-480.786,0,0
349724,58.9563,-476.178,0,0
351025,58.1487,-471.764,0,0
352327,57.6875,-467.325,0,0
353629,57.3302,-463.233,0,0
354930,57.029,-459.178,0,0
356232,56.8797,-455.193,0,0
357534,56.9067,-451.349,0,0
358835,56.8803,-447.581,0,0
360137,57.0658,-443.742,0,0
361438,57.4097,-440.173,0,0
362740.1,57.7331,-436.706,0,0
364041.725,58.0539,-433.135,0,0
365343.35,58.596,-429.652,0,0
366644.975,59.1898,-426.362,0,0
367946.6,59.3063,-422.778,0,0
369248.225,60.0149,-418.382,0,0
370549.85,61.8941,-413.933,0,0
371851.475,64.8264,-410.106,0,0
373153.1,68.3718,-407.493,0,0
374454.725,71.8019,-406.173,0,0
375756.35,74.5273,-405.76,0,0
377057.975,76.4924,-405.503,0,0
378359.6,78.3421,-405.376,0,0
379661,79.7907,-405.675,0,0
380963,81.0561,-405.704,0,0
382264,82.6889,-407.004,0,0
383566,82.6816,-409.256,0,0
384868,81.0796,-411.113,0,0
386169,78.4521,-412.02,0,0
387471,75.3319,-411.701,0,0
388773,72.5536,-410.016,0,0
390074,70.6964,-407.94,0,0
391376,69.3491,-406.162,0,0
392677,67.9106,-404.719,0,0
393979,65.8509,-403.265,0,0
395280.7,63.3619,-401.053,0,0
396582.325,61.2635,-398.069,0,0
397883.95,59.6912,-394.609,0,0
399185.575,58.5923,-391.141,0,0
400006.6,58.1045,-388.841,0,0