File: Accelerated corrosion test data/2025-10-18_18-00-03/sample_1.csv
Frequency (Hz),Impedance (ohms),Phase (Radians),Temperature (C),Humidity (%)
10000.0,241.838,-12200.2,0,0
11301.625,215.202,-10806,0,0
12603.25,195.621,-9706.16,0,0
13904.875,184.819,-8781.28,0,0
15206.5,192.353,-8053.33,0,0
16508.125,155.8,-7426.88,0,0
17809.75,147.63,-6890.65,0,0
19111.375,135.595,-6421.81,0,0
20413.0,161.273,-5979.69,0,0
21714.625,135.394,-5660.97,0,0
23016.25,122.895,-5360.48,0,0
24317.875,113.166,-5067.68,0,0
25619.5,105.052,-4804,0,0
26921.1,116.151,-4554.82,0,0
28222.7,111.682,-4351.81,0,0
29524.4,107.559,-4185.85,0,0
30826,101.58,-3998.32,0,0
32127.6,97.5916,-3841.55,0,0
33429.2,88.609,-3696.38,0,0
34730.9,82.7325,-3555.3,0,0
36032.5,77.9905,-3424.4,0,0
37334.1,75.6582,-3301.93,0,0
38635.7,73.4786,-3188.21,0,0
39937.4,71.5255,-3081.61,0,0
41239,72.8417,-2983.14,0,0
42540.6,71.5839,-2891.14,0,0
43842.225,68.0481,-2803.81,0,0
45143.85,68.8011,-2722.37,0,0
46445.475,65.4942,-2645.33,0,0
47747.1,64.7477,-2571.98,0,0
49048.725,62.0626,-2502.05,0,0
50350.35,59.9152,-2435.57,0,0
51651.975,58.9167,-2372.07,0,0
52953.6,58.0384,-2311.15,0,0
54255.225,56.9906,-2254.23,0,0
55556.85,56.0187,-2198.8,0,0
56858.475,55.2557,-2145.72,0,0
58160.1,54.8088,-2095.07,0,0
59461.7,54.5697,-2047.19,0,0
60763.3,54.8565,-2001.38,0,0
62065,53.319,-1957.19,0,0
63366.6,52.7775,-1913.75,0,0
64668.2,53.3246,-1871.75,0,0
65969.8,55.4194,-1833.97,0,0
67271.5,53.985,-1796.92,0,0
68573.1,53.2422,-1761.5,0,0
69874.7,52.6287,-1727.46,0,0
71176.3,50.6085,-1693.07,0,0
72478,48.857,-1659.31,0,0
73779.6,48.3384,-1626.05,0,0
75081.2,48.7434,-1593.85,0,0
76382.825,49.5742,-1562.78,0,0
77684.45,50.5023,-1533.37,0,0
78986.075,52.2066,-1505.8,0,0
80287.7,51.3124,-1479.43,0,0
81589.325,50.921,-1451.55,0,0
82890.95,51.4826,-1424.72,0,0
84192.575,52.9545,-1398.44,0,0
85494.2,55.131,-1374.15,0,0
86795.825,55.8983,-1350.65,0,0
88097.45,56.5373,-1327.25,0,0
89399.075,58.3585,-1302.77,0,0
90700.7,61.6946,-1279.42,0,0
92002.3,67.6416,-1257.93,0,0
93303.9,75.671,-1240.95,0,0
94605.6,74.508,-1234.38,0,0
95907.2,67.0077,-1215.46,0,0
97208.8,65.1526,-1194.95,0,0
98510.4,64.9273,-1174.66,0,0
99812.1,64.1801,-1155,0,0
101114,63.7411,-1135.09,0,0
102415,63.9347,-1113,0,0
103717,68.649,-1092.02,0,0
105019,75.5145,-1074.73,0,0
106320.175,82.0884,-1058.61,0,0
107621.8,88.0716,-1046.48,0,0
108923.425,92.3746,-1035.17,0,0
110225.05,94.5296,-1027.21,0,0
111526.675,94.7659,-1014.6,0,0
112828.3,96.9692,-1005.09,0,0
114129.925,95.7636,-997.193,0,0
115431.55,92.2741,-987.981,0,0
116733.175,87.4,-976.047,0,0
118034.8,82.7719,-961.373,0,0
119336.425,81.0884,-945.547,0,0
120638.05,81.6048,-931.078,0,0
121939.675,80.4274,-918.534,0,0
123241,78.8776,-903.808,0,0
124543,79.0564,-888.657,0,0
125845,80.157,-873.909,0,0
127146,81.2299,-859.641,0,0
128448,83.6098,-845.404,0,0
129749,86.0831,-831.239,0,0
131051,90.897,-818.169,0,0
132353,94.9756,-807.758,0,0
133654,97.9032,-797.227,0,0
134956,100.998,-786.827,0,0
136258,103.391,-776.32,0,0
137559,108.126,-766.442,0,0
138860.775,110.73,-759.88,0,0
140162.4,110.137,-752.118,0,0
141464.025,109.615,-741.802,0,0
142765.65,110.426,-730.622,0,0
144067.275,112.055,-719.617,0,0
145368.9,113.799,-708.542,0,0
146670.525,117.147,-698.117,0,0
147972.15,118.925,-689.901,0,0
149273.775,120.144,-678.329,0,0
150575.4,122.613,-669.713,0,0
151877.025,121.313,-658.685,0,0
153178.65,121.339,-643.365,0,0
154480,125.307,-626.905,0,0
155782,132.57,-609.972,0,0
157084,144.379,-595.385,0,0
158385,157.306,-585.464,0,0
159687,167.056,-574.366,0,0
160988,185.258,-563.744,0,0
162290,204.324,-563.105,0,0
163592,216.087,-565.746,0,0
164893,228.365,-567.028,0,0
166195,241.307,-574.006,0,0
167497,248.21,-584.77,0,0
168798,247.206,-597.218,0,0
170100,238.238,-604.612,0,0
171401.375,228.958,-602.256,0,0
172703.0,225.714,-596.96,0,0
174004.625,222.328,-592.903,0,0
175306.25,221.191,-588.463,0,0
176607.875,219.788,-585.773,0,0
177909.5,217.521,-582.502,0,0
179211.125,213.236,-579.308,0,0
180512.75,207.295,-575.349,0,0
181814.375,200.625,-567.783,0,0
183116.0,193.691,-557.16,0,0
184417.625,188.303,-543.499,0,0
185719.25,187.27,-527.531,0,0
187021,187.981,-512.318,0,0
188322,191.267,-496.626,0,0
189624,195.58,-482.338,0,0
190926,199.895,-467.18,0,0
192227,205.681,-450.608,0,0
193529,214.406,-433.893,0,0
194831,224.268,-416.67,0,0
196132,237.945,-398.414,0,0
197434,254.586,-381.674,0,0
198735,273.487,-366.072,0,0
200037,295.142,-349.721,0,0
201339,321.834,-334.046,0,0
202640.35,357.155,-318.974,0,0
203941.975,400.829,-312.497,0,0
205243.6,452.47,-321.889,0,0
206545.225,496.393,-349.783,0,0
207846.85,525.335,-388.435,0,0
209148.475,539.548,-428.512,0,0
210450.1,537.802,-465.431,0,0
211751.725,525.73,-484.716,0,0
213053.35,522.716,-486.058,0,0
214354.975,537.029,-491.741,0,0
215656.6,549.867,-507.763,0,0
216958.225,560.501,-522.737,0,0
218259.85,571.999,-539.844,0,0
219561,587.276,-557.28,0,0
220863,606.993,-582.601,0,0
222165,625.311,-621.628,0,0
223466,628.494,-670.495,0,0
224768,619.889,-720.214,0,0
226070,598.207,-765.641,0,0
227371,567.985,-808.598,0,0
228673,524.539,-841.358,0,0
229974,477.726,-858.889,0,0
231276,434.014,-863.196,0,0
232578,397.211,-859.176,0,0
233879,369.069,-852.867,0,0
235180.95,344.872,-848.516,0,0
236482.575,320.462,-843.294,0,0
237784.2,296.821,-837.383,0,0
239085.825,273.764,-827.628,0,0
240387.45,254.452,-815.898,0,0
241689.075,238.032,-804.093,0,0
242990.7,223.35,-791.746,0,0
244292.325,211.387,-780.028,0,0
245593.95,199.63,-769.609,0,0
246895.575,187.831,-758.24,0,0
248197.2,177.511,-745.507,0,0
249498.825,169.098,-732.677,0,0
250800,162.053,-720.277,0,0
252102,156.045,-708.087,0,0
253404,150.447,-695.864,0,0
254705,146.516,-682.77,0,0
256007,144.582,-670.837,0,0
257309,143.081,-659.361,0,0
258610,142.391,-647.715,0,0
259912,144.123,-635.803,0,0
261213,148.523,-625.942,0,0
262515,153.581,-618.842,0,0
263817,158.856,-613.699,0,0
265118,164.695,-610.358,0,0
266420,171.042,-610.972,0,0
267721.55,174.021,-616.714,0,0
269023.175,169.541,-623.661,0,0
270324.8,159.016,-625.203,0,0
271626.425,149.163,-620.105,0,0
272928.05,142.695,-611.632,0,0
274229.675,139.891,-602.689,0,0
275531.3,139.28,-594.823,0,0
276832.925,140.307,-587.653,0,0
278134.55,142.879,-582.687,0,0
279436.175,144.882,-580.412,0,0
280737.8,145.057,-579.124,0,0
282039.425,143.749,-578.183,0,0
283341,140.512,-575.81,0,0
284643,138.203,-572.118,0,0
285944,135.611,-568.734,0,0
287246,131.706,-563.927,0,0
288548,129.439,-555.462,0,0
289849,132.305,-547.901,0,0
291151,134.929,-544.577,0,0
292452,135.81,-541.945,0,0
293754,134.99,-538.331,0,0
295056,134.727,-532.467,0,0
296357,137.062,-525.656,0,0
297659,141.521,-520.411,0,0
298960.525,146.899,-516.348,0,0
300262.15,153.048,-514.149,0,0
301563.775,159.549,-513.372,0,0
302865.4,166.201,-515.227,0,0
304167.025,170.977,-518.881,0,0
305468.65,174.707,-522.836,0,0
306770.275,178.107,-528.402,0,0
308071.9,178.818,-535.748,0,0
309373.525,177.399,-542.101,0,0
310675.15,175.316,-548.272,0,0
311976.775,171.057,-555.448,0,0
313278.4,163.726,-560.682,0,0
314580,156.092,-563.18,0,0
315882,148.92,-564.799,0,0
317183,141.121,-565.543,0,0
318485,133.008,-564.934,0,0
319787,125.133,-562.773,0,0
321088,117.64,-559.458,0,0
322390,110.882,-554.467,0,0
323691,106.129,-548.372,0,0
324993,103.366,-542.686,0,0
326295,101.951,-537.949,0,0
327596,100.914,-534.587,0,0
328898,99.5744,-532.342,0,0
330200,97.4499,-530.497,0,0
331501.125,94.9107,-528.727,0,0
332802.75,91.8288,-527.004,0,0
334104.375,87.9855,-524.887,0,0
335406.0,83.933,-521.764,0,0
336707.625,80.3917,-518.111,0,0
338009.25,77.1739,-514.196,0,0
339310.875,74.3125,-510.116,0,0
340612.5,71.8727,-505.876,0,0
341914.125,69.7382,-501.887,0,0
343215.75,67.548,-497.938,0,0
344517.375,65.4435,-493.845,0,0
345819.0,63.3669,-489.669,0,0
347121,61.3411,-485.197,0,0
348422,59.9006,-480.388,0,0
349724,58.8814,-475.788,0,0
351025,58.174,-471.207,0,0
352327,57.7138,-466.834,0,0
353629,57.3996,-462.722,0,0
354930,57.0767,-458.654,0,0
356232,56.9923,-454.693,0,0
357534,56.8894,-450.911,0,0
358835,56.8485,-447.018,0,0
360137,57.1392,-443.241,0,0
361438,57.4307,-439.571,0,0
362740.1,57.8166,-436.057,0,0
364041.725,58.1975,-432.505,0,0
365343.35,58.8365,-428.954,0,0
366644.975,59.4407,-425.807,0,0
367946.6,59.5806,-422.216,0,0
369248.225,60.3949,-417.829,0,0
370549.85,62.3179,-413.446,0,0
371851.475,65.3232,-409.584,0,0
373153.1,68.9837,-407.359,0,0
374454.725,72.1614,-406.265,0,0
375756.35,74.436,-405.7,0,0
377057.975,76.5471,-405.139,0,0
378359.6,78.4814,-405.081,0,0
379661,79.7878,-405.356,0,0
380963,81.265,-405.321,0,0
382264,82.8649,-406.775,0,0
383566,82.7266,-408.93,0,0
384868,81.1953,-410.828,0,0
386169,78.4493,-411.671,0,0
387471,75.421,-411.188,0,0
388773,72.7851,-409.688,0,0
390074,70.7316,-407.634,0,0
391376,69.4756,-405.691,0,0
392677,68.0828,-404.462,0,0
393979,65.8187,-402.958,0,0
395280.7,63.4456,-400.666,0,0
396582.325,61.2707,-397.65,0,0
397883.95,59.7549,-394.12,0,0
399185.575,58.7422,-390.558,0,0
400006.6,58.338,-388.334,0,0