File: Accelerated corrosion test data/2025-10-18_18-00-03/sample_8.csv
Frequency (Hz),Impedance (ohms),Phase (Radians),Temperature (C),Humidity (%)
10000.0,311.015,-10961,0,0
11301.625,275.28,-9713.81,0,0
12603.25,253.334,-8723.3,0,0
13904.875,224.621,-7923.45,0,0
15206.5,204.701,-7250.05,0,0
16508.125,188.881,-6684.12,0,0
17809.75,175.742,-6198.03,0,0
19111.375,167.834,-5776.04,0,0
20413.0,161.054,-5414.79,0,0
21714.625,149.555,-5094.94,0,0
23016.25,144.335,-4812.1,0,0
24317.875,132.368,-4556.11,0,0
25619.5,126.052,-4322.95,0,0
26921.1,120.745,-4112.6,0,0
28222.7,117.349,-3922.79,0,0
29524.4,113.895,-3750.21,0,0
30826,109.777,-3592.69,0,0
32127.6,105.545,-3444.87,0,0
33429.2,105.528,-3308.13,0,0
34730.9,106.546,-3183.58,0,0
36032.5,109.712,-3073.14,0,0
37334.1,105.917,-2974.18,0,0
38635.7,96.0412,-2877.2,0,0
39937.4,88.1125,-2780.28,0,0
41239,85.4824,-2690.05,0,0
42540.6,82.4172,-2605.18,0,0
43842.225,81.5754,-2527.7,0,0
45143.85,77.7181,-2453.12,0,0
46445.475,74.5816,-2382.08,0,0
47747.1,72.9624,-2314.81,0,0
49048.725,70.707,-2251.25,0,0
50350.35,68.9121,-2190.56,0,0
51651.975,67.9021,-2132.47,0,0
52953.6,67.3804,-2077.69,0,0
54255.225,66.5718,-2027.72,0,0
55556.85,63.3561,-1978.45,0,0
56858.475,61.3458,-1929.67,0,0
58160.1,60.3914,-1883.17,0,0
59461.7,59.5793,-1839.4,0,0
60763.3,58.2869,-1796.64,0,0
62065,57.9411,-1755.92,0,0
63366.6,58.2028,-1716.31,0,0
64668.2,58.5748,-1680.04,0,0
65969.8,57.654,-1645,0,0
67271.5,55.7538,-1610.41,0,0
68573.1,54.9428,-1576.61,0,0
69874.7,54.6401,-1543.52,0,0
71176.3,54.5873,-1512.11,0,0
72478,54.6624,-1482.21,0,0
73779.6,53.903,-1453.3,0,0
75081.2,52.9615,-1424.74,0,0
76382.825,52.649,-1396.77,0,0
77684.45,52.2628,-1369.98,0,0
78986.075,51.5962,-1343.68,0,0
80287.7,51.0447,-1317.44,0,0
81589.325,51.2939,-1291.65,0,0
82890.95,52.0935,-1266.78,0,0
84192.575,53.3779,-1243.05,0,0
85494.2,53.7904,-1221.3,0,0
86795.825,53.4203,-1197.87,0,0
88097.45,54.3575,-1175.3,0,0
89399.075,55.1282,-1152.86,0,0
90700.7,57.1332,-1130.1,0,0
92002.3,61.4082,-1109.55,0,0
93303.9,64.5398,-1091.45,0,0
94605.6,65.5078,-1073.1,0,0
95907.2,67.2839,-1053.6,0,0
97208.8,70.9974,-1034.5,0,0
98510.4,75.966,-1016.79,0,0
99812.1,80.7165,-1002.5,0,0
101114,84.9864,-989.376,0,0
102415,87.2363,-978.158,0,0
103717,86.3132,-966.393,0,0
105019,85.6521,-953.412,0,0
106320.175,85.0398,-939.015,0,0
107621.8,85.3672,-925.509,0,0
108923.425,84.648,-911.077,0,0
110225.05,86.2165,-897.234,0,0
111526.675,86.7676,-884.271,0,0
112828.3,87.6506,-872.128,0,0
114129.925,87.747,-860.397,0,0
115431.55,87.6508,-848.83,0,0
116733.175,85.8204,-836.501,0,0
118034.8,85.6454,-823.754,0,0
119336.425,84.9675,-811.578,0,0
120638.05,83.8222,-799.082,0,0
121939.675,82.8007,-786.406,0,0
123241,81.9171,-773.619,0,0
124543,80.6864,-760.241,0,0
125845,80.0597,-746.554,0,0
127146,79.8873,-732.593,0,0
128448,80.2977,-718.719,0,0
129749,80.4137,-705.218,0,0
131051,81.5486,-690.482,0,0
132353,83.1611,-677.369,0,0
133654,83.9616,-664.125,0,0
134956,85.2003,-649.996,0,0
136258,87.9461,-636.636,0,0
137559,88.2409,-624.779,0,0
138860.775,87.6799,-609.201,0,0
140162.4,89.9111,-592.849,0,0
141464.025,92.7571,-576.966,0,0
142765.65,95.583,-560.11,0,0
144067.275,100.503,-542.074,0,0
145368.9,107.845,-523.407,0,0
146670.525,117.334,-506.158,0,0
147972.15,127.507,-490.884,0,0
149273.775,139.69,-471.797,0,0
150575.4,158.828,-454.957,0,0
151877.025,184.712,-448.056,0,0
153178.65,202.078,-452.057,0,0
154480,209.344,-455.156,0,0
155782,221.789,-452.13,0,0
157084,223.201,-464.757,0,0
158385,216.927,-453.326,0,0
159687,227.451,-448.548,0,0
160988,222.427,-446.055,0,0
162290,227.412,-431.045,0,0
163592,237.043,-427.256,0,0
164893,240.707,-425.11,0,0
166195,239.49,-426.433,0,0
167497,227.767,-418.647,0,0
168798,219.527,-401.428,0,0
170100,216.369,-377.293,0,0
171401.375,217.591,-350.515,0,0
172703.0,228.864,-319.201,0,0
174004.625,247.204,-293.621,0,0
175306.25,261.258,-271.578,0,0
176607.875,282.397,-239.989,0,0
177909.5,310.609,-213.697,0,0
179211.125,348.804,-185.931,0,0
180512.75,395.967,-165.862,0,0
181814.375,452.128,-154.649,0,0
183116.0,509.381,-166.356,0,0
184417.625,550.123,-186.273,0,0
185719.25,589.784,-203.037,0,0
187021,625.286,-227.819,0,0
188322,653.738,-248.451,0,0
189624,680.555,-272.146,0,0
190926,705.423,-286.309,0,0
192227,741.651,-307.604,0,0
193529,780.865,-317.481,0,0
194831,848.48,-359.115,0,0
196132,903.837,-430.083,0,0
197434,930.953,-530.359,0,0
198735,917.098,-634.439,0,0
200037,872.429,-720.968,0,0
201339,813.351,-779.465,0,0
202640.35,738.726,-825.153,0,0
203941.975,669.103,-824.472,0,0
205243.6,623.764,-816.825,0,0
206545.225,582.275,-800.415,0,0
207846.85,568.88,-775.332,0,0
209148.475,566.547,-768.257,0,0
210450.1,564.582,-765.032,0,0
211751.725,568.735,-770.148,0,0
213053.35,568.14,-786.238,0,0
214354.975,561.722,-804.008,0,0
215656.6,551.059,-827.174,0,0
216958.225,528.643,-847.905,0,0
218259.85,503.44,-861.796,0,0
219561,475.832,-871.337,0,0
220863,446.009,-874.679,0,0
222165,421.846,-869.744,0,0
223466,402.996,-863.519,0,0
224768,391.216,-859.15,0,0
226070,380.482,-863.342,0,0
227371,362.386,-869.855,0,0
228673,340.208,-871.268,0,0
229974,319.831,-872.793,0,0
231276,292.645,-872.405,0,0
232578,266.055,-864.146,0,0
233879,240.136,-851.991,0,0
235180.95,217.624,-833.049,0,0
236482.575,202.734,-811.22,0,0
237784.2,193.082,-790.696,0,0
239085.825,188.246,-770.453,0,0
240387.45,188.393,-756.084,0,0
241689.075,187.27,-747.236,0,0
242990.7,181.359,-738.223,0,0
244292.325,176.885,-726.798,0,0
245593.95,174.333,-715.865,0,0
246895.575,173.598,-706.232,0,0
248197.2,171.263,-699.086,0,0
249498.825,167.586,-690.851,0,0
250800,164.91,-680.403,0,0
252102,165.375,-670.252,0,0
253404,167.53,-663.536,0,0
254705,166.655,-658.967,0,0
256007,163.564,-653.248,0,0
257309,159.896,-644.037,0,0
258610,159.832,-632.347,0,0
259912,163.85,-621.526,0,0
261213,169.197,-613.784,0,0
262515,174.696,-608.115,0,0
263817,179.07,-602.117,0,0
265118,184.913,-594.333,0,0
266420,196.463,-585.975,0,0
267721.55,215.138,-583.044,0,0
269023.175,236.096,-591.881,0,0
270324.8,251.606,-610.762,0,0
271626.425,257.894,-638.171,0,0
272928.05,250.401,-668.253,0,0
274229.675,226.632,-692.262,0,0
275531.3,196.562,-699.827,0,0
276832.925,171.372,-696.599,0,0
278134.55,151.063,-687.566,0,0
279436.175,135.738,-674.72,0,0
280737.8,127.467,-660.22,0,0
282039.425,124.453,-648.89,0,0
283341,122.72,-641.166,0,0
284643,120.342,-634.259,0,0
285944,120.339,-626.946,0,0
287246,123.974,-624.224,0,0
288548,123.617,-628.75,0,0
289849,115.482,-632.318,0,0
291151,105.085,-630.255,0,0
292452,95.648,-625.743,0,0
293754,87.3924,-619.058,0,0
295056,80.3122,-610.921,0,0
296357,75.5503,-602.063,0,0
297659,71.9021,-593.839,0,0
298960.525,69.0148,-585.338,0,0
300262.15,67.3881,-576.795,0,0
301563.775,67.229,-568.592,0,0
302865.4,68.3372,-561.551,0,0
304167.025,69.8862,-556.03,0,0
305468.65,71.2902,-551.567,0,0
306770.275,72.405,-548.155,0,0
308071.9,73.115,-545.175,0,0
309373.525,73.1341,-543.354,0,0
310675.15,71.9655,-540.824,0,0
311976.775,71.0803,-538.211,0,0
313278.4,69.7668,-535.929,0,0
314580,67.7916,-533.267,0,0
315882,65.7597,-529.944,0,0
317183,64.2456,-526.21,0,0
318485,63.0601,-522.623,0,0
319787,62.2559,-519.142,0,0
321088,61.5603,-516.325,0,0
322390,60.497,-513.918,0,0
323691,58.8512,-511.681,0,0
324993,56.3924,-508.906,0,0
326295,54.1132,-505.373,0,0
327596,52.1657,-501.565,0,0
328898,50.3708,-497.593,0,0
330200,48.8024,-493.38,0,0
331501.125,47.5469,-489.09,0,0
332802.75,46.612,-484.686,0,0
334104.375,46.3383,-480.205,0,0
335406.0,46.5403,-476.356,0,0
336707.625,46.5988,-473.113,0,0
338009.25,46.2707,-470.169,0,0
339310.875,45.6387,-467.198,0,0
340612.5,44.8153,-464.07,0,0
341914.125,43.8461,-460.679,0,0
343215.75,43.0507,-456.935,0,0
344517.375,42.4957,-453.029,0,0
345819.0,42.2947,-449.053,0,0
347121,42.409,-445.095,0,0
348422,42.8039,-441.289,0,0
349724,43.4523,-437.603,0,0
351025,44.4732,-434.249,0,0
352327,45.5535,-431.347,0,0
353629,46.5456,-428.804,0,0
354930,47.3092,-426.513,0,0
356232,47.8951,-424.375,0,0
357534,48.3448,-422.237,0,0
358835,48.7119,-420.157,0,0
360137,48.969,-418.05,0,0
361438,49.2223,-415.995,0,0
362740.1,49.4277,-413.919,0,0
364041.725,49.5301,-411.867,0,0
365343.35,49.6133,-409.775,0,0
366644.975,49.83,-407.707,0,0
367946.6,50.0324,-405.635,0,0
369248.225,50.2119,-403.416,0,0
370549.85,51.0057,-401.388,0,0
371851.475,51.6996,-400.169,0,0
373153.1,51.7678,-399.38,0,0
374454.725,51.0986,-398.446,0,0
375756.35,49.9542,-396.722,0,0
377057.975,49.505,-394.442,0,0
378359.6,49.2183,-392.781,0,0
379661,48.2893,-390.861,0,0
380963,48.2456,-388.136,0,0
382264,48.7955,-386.85,0,0
383566,47.9761,-385.988,0,0
384868,46.4932,-384.48,0,0
386169,44.8622,-382.221,0,0
387471,43.5571,-379.324,0,0
388773,42.788,-376.135,0,0
390074,42.5171,-372.996,0,0
391376,42.4303,-370.275,0,0
392677,42.1947,-367.571,0,0
393979,41.9819,-364.804,0,0
395280.7,41.901,-361.811,0,0
396582.325,42.133,-358.927,0,0
397883.95,42.3853,-356.274,0,0
399185.575,42.5996,-353.641,0,0
400006.6,42.6859,-351.95,0,0