File: Accelerated corrosion test data/2025-10-18_18-00-03/sample_7.csv
Frequency (Hz),Impedance (ohms),Phase (Radians),Temperature (C),Humidity (%)
10000.0,276.064,-12089.1,0,0
11301.625,248.578,-10693.9,0,0
12603.25,261.735,-9644.97,0,0
13904.875,210.429,-8751.01,0,0
15206.5,197.208,-8012.14,0,0
16508.125,172.724,-7371.9,0,0
17809.75,170.521,-6817.76,0,0
19111.375,180.999,-6366.1,0,0
20413.0,168.72,-5986.99,0,0
21714.625,157.409,-5644.46,0,0
23016.25,130.608,-5317.47,0,0
24317.875,123.332,-5024.05,0,0
25619.5,119.172,-4760.11,0,0
26921.1,121.854,-4514.76,0,0
28222.7,179.899,-4295.39,0,0
29524.4,141.684,-4177.38,0,0
30826,130.992,-3988.83,0,0
32127.6,119.494,-3841.16,0,0
33429.2,101.813,-3691.36,0,0
34730.9,92.8452,-3546.05,0,0
36032.5,89.0535,-3412.22,0,0
37334.1,86.5065,-3288.35,0,0
38635.7,87.0002,-3171.06,0,0
39937.4,99.9126,-3071.86,0,0
41239,87.5172,-2985.75,0,0
42540.6,80.1643,-2889.02,0,0
43842.225,79.0269,-2799.37,0,0
45143.85,80.6757,-2721.8,0,0
46445.475,77.2652,-2650.39,0,0
47747.1,70.7549,-2573.51,0,0
49048.725,68.2166,-2503.16,0,0
50350.35,66.359,-2435.87,0,0
51651.975,64.5074,-2372.45,0,0
52953.6,64.066,-2311.87,0,0
54255.225,62.4591,-2255.44,0,0
55556.85,61.131,-2200.75,0,0
56858.475,60.2906,-2148.07,0,0
58160.1,59.4818,-2097.64,0,0
59461.7,59.4208,-2050.33,0,0
60763.3,59.0523,-2006.44,0,0
62065,57.0771,-1962.95,0,0
63366.6,55.6552,-1920.23,0,0
64668.2,55.1353,-1879.68,0,0
65969.8,55.0042,-1841.14,0,0
67271.5,53.2817,-1804.36,0,0
68573.1,52.1791,-1767.73,0,0
69874.7,51.4356,-1732.45,0,0
71176.3,51.2713,-1698.53,0,0
72478,50.3647,-1666.47,0,0
73779.6,49.4618,-1634.71,0,0
75081.2,48.9669,-1603.9,0,0
76382.825,48.3597,-1574.14,0,0
77684.45,48.079,-1545.29,0,0
78986.075,47.7363,-1517.37,0,0
80287.7,47.6062,-1490.35,0,0
81589.325,47.2174,-1464.1,0,0
82890.95,46.8716,-1438.44,0,0
84192.575,46.814,-1413.29,0,0
85494.2,47.0829,-1389.23,0,0
86795.825,47.1721,-1365.86,0,0
88097.45,47.3749,-1343.32,0,0
89399.075,46.7532,-1321.11,0,0
90700.7,46.8781,-1298.83,0,0
92002.3,47.0358,-1277.12,0,0
93303.9,47.3702,-1255.47,0,0
94605.6,50.5227,-1235.35,0,0
95907.2,49.6765,-1218.47,0,0
97208.8,48.9431,-1198.35,0,0
98510.4,49.9543,-1179.16,0,0
99812.1,50.0373,-1160.73,0,0
101114,51.044,-1141.32,0,0
102415,52.7934,-1123.32,0,0
103717,55.4339,-1106.54,0,0
105019,56.4514,-1091.43,0,0
106320.175,56.0365,-1075.69,0,0
107621.8,57.0353,-1058.81,0,0
108923.425,58.0663,-1042.57,0,0
110225.05,58.7917,-1025.56,0,0
111526.675,61.8246,-1008.73,0,0
112828.3,66.771,-992.468,0,0
114129.925,72.1975,-978.641,0,0
115431.55,78.7378,-966.009,0,0
116733.175,87.0461,-957.951,0,0
118034.8,90.8716,-953.495,0,0
119336.425,93.5858,-951.528,0,0
120638.05,86.2772,-952.164,0,0
121939.675,74.7741,-941.945,0,0
123241,67.168,-928.647,0,0
124543,62.5539,-913.836,0,0
125845,58.5438,-899.54,0,0
127146,55.0125,-885.157,0,0
128448,53.2027,-870.087,0,0
129749,51.4842,-855.36,0,0
131051,50.3704,-841.053,0,0
132353,49.4488,-825.585,0,0
133654,49.8444,-809.938,0,0
134956,52.7532,-794.967,0,0
136258,56.5509,-782.868,0,0
137559,57.4483,-774.523,0,0
138860.775,54.8057,-762.221,0,0
140162.4,54.6863,-748.33,0,0
141464.025,54.6509,-734.758,0,0
142765.65,55.6043,-720.225,0,0
144067.275,58.2655,-706.433,0,0
145368.9,60.2383,-694.488,0,0
146670.525,61.225,-681.085,0,0
147972.15,63.0638,-667.698,0,0
149273.775,63.5366,-654.937,0,0
150575.4,63.8612,-639.533,0,0
151877.025,65.7455,-622.187,0,0
153178.65,69.8149,-604.06,0,0
154480,75.696,-585.893,0,0
155782,84.2004,-567.552,0,0
157084,95.0191,-550.484,0,0
158385,108.215,-536.585,0,0
159687,118.343,-527.457,0,0
160988,122.17,-513.234,0,0
162290,130.26,-489.981,0,0
163592,147.098,-465.089,0,0
164893,172.024,-444.141,0,0
166195,199.414,-421.193,0,0
167497,245.099,-400.744,0,0
168798,305.072,-398.609,0,0
170100,365.598,-425.261,0,0
171401.375,411.587,-478.973,0,0
172703.0,429.138,-545.879,0,0
174004.625,404.808,-615.449,0,0
175306.25,355.185,-640.61,0,0
176607.875,326.259,-630.427,0,0
177909.5,329.251,-625.999,0,0
179211.125,335.601,-658.798,0,0
180512.75,301.08,-684.283,0,0
181814.375,265.042,-696.482,0,0
183116.0,221.658,-691.467,0,0
184417.625,190.535,-669.694,0,0
185719.25,169.986,-647.74,0,0
187021,154.4,-620.493,0,0
188322,149.477,-595.068,0,0
189624,144.507,-575.632,0,0
190926,138.475,-553.662,0,0
192227,137.861,-529.816,0,0
193529,139.83,-504.831,0,0
194831,146.31,-481.085,0,0
196132,156.938,-459.905,0,0
197434,168.584,-442.656,0,0
198735,177.307,-426.814,0,0
200037,185.124,-406.653,0,0
201339,199.039,-382.786,0,0
202640.35,219.611,-357.802,0,0
203941.975,247.776,-336.553,0,0
205243.6,280.946,-317.787,0,0
206545.225,326.392,-309.746,0,0
207846.85,361.44,-315.944,0,0
209148.475,398.294,-309.805,0,0
210450.1,460.13,-320.979,0,0
211751.725,508.014,-366.657,0,0
213053.35,530.576,-419.457,0,0
214354.975,539.831,-467.106,0,0
215656.6,535.801,-510.807,0,0
216958.225,529.032,-552.842,0,0
218259.85,505.85,-591.632,0,0
219561,468.3,-619.405,0,0
220863,432.328,-618.242,0,0
222165,413.32,-607.779,0,0
223466,407.528,-599.825,0,0
224768,404.935,-596.599,0,0
226070,406.945,-590.851,0,0
227371,417.947,-594.119,0,0
228673,427.72,-606.591,0,0
229974,433.631,-627.637,0,0
231276,431.163,-655.741,0,0
232578,420.154,-683.167,0,0
233879,392.879,-713.986,0,0
235180.95,349.381,-726.368,0,0
236482.575,313.505,-715.336,0,0
237784.2,292.049,-705.516,0,0
239085.825,267.512,-688.784,0,0
240387.45,260.965,-668.622,0,0
241689.075,255.199,-663.169,0,0
242990.7,240.299,-652.443,0,0
244292.325,232.702,-632.963,0,0
245593.95,236.893,-619.919,0,0
246895.575,236.441,-613.547,0,0
248197.2,232.812,-604.241,0,0
249498.825,232.82,-592.392,0,0
250800,236.989,-580.053,0,0
252102,246.824,-570.512,0,0
253404,260.983,-568.085,0,0
254705,271.724,-576.263,0,0
256007,272.538,-587.256,0,0
257309,267.17,-594.265,0,0
258610,260.276,-594.977,0,0
259912,255.918,-594.96,0,0
261213,250.422,-592,0,0
262515,248.939,-584.285,0,0
263817,257.396,-580.689,0,0
265118,262.47,-587.63,0,0
266420,261.688,-593.272,0,0
267721.55,260.543,-600.631,0,0
269023.175,252.384,-605.074,0,0
270324.8,249.325,-603.081,0,0
271626.425,255.127,-603.477,0,0
272928.05,263.1,-621.359,0,0
274229.675,249.236,-648.839,0,0
275531.3,217.747,-664.533,0,0
276832.925,181.691,-659.924,0,0
278134.55,154.499,-639.552,0,0
279436.175,142.33,-615.287,0,0
280737.8,139.439,-594.77,0,0
282039.425,139.353,-581.447,0,0
283341,136.274,-567.81,0,0
284643,138.169,-552.013,0,0
285944,144.632,-540.009,0,0
287246,151.367,-533.878,0,0
288548,153.121,-529.241,0,0
289849,154.601,-521.2,0,0
291151,158.872,-511.801,0,0
292452,165.572,-504.605,0,0
293754,173.193,-498.308,0,0
295056,181.734,-492.89,0,0
296357,192.739,-488.622,0,0
297659,206.215,-487.069,0,0
298960.525,221.076,-489.952,0,0
300262.15,236.273,-496.972,0,0
301563.775,252.399,-510.271,0,0
302865.4,265.145,-535.632,0,0
304167.025,259.305,-567.413,0,0
305468.65,242.177,-588.566,0,0
306770.275,221.068,-601.832,0,0
308071.9,199.596,-607.177,0,0
309373.525,179.308,-606.118,0,0
310675.15,163.518,-600.397,0,0
311976.775,151.485,-594.028,0,0
313278.4,140.804,-587.93,0,0
314580,130.798,-579.987,0,0
315882,123.98,-570.474,0,0
317183,119.977,-562.074,0,0
318485,117.033,-554.93,0,0
319787,115.177,-548.5,0,0
321088,113.735,-543.693,0,0
322390,111.863,-539.523,0,0
323691,109.904,-535.632,0,0
324993,107.875,-531.725,0,0
326295,106.672,-527.948,0,0
327596,105.719,-525.825,0,0
328898,103.221,-524.436,0,0
330200,99.8671,-522.62,0,0
331501.125,96.085,-520.699,0,0
332802.75,91.2012,-518.277,0,0
334104.375,85.8574,-514.673,0,0
335406.0,80.8827,-509.815,0,0
336707.625,76.3061,-504.259,0,0
338009.25,72.5218,-497.817,0,0
339310.875,69.6302,-491.303,0,0
340612.5,67.1956,-484.615,0,0
341914.125,65.5715,-477.585,0,0
343215.75,64.9419,-470.576,0,0
344517.375,65.4237,-463.98,0,0
345819.0,66.55,-458.67,0,0
347121,67.2521,-454.594,0,0
348422,66.7149,-450.688,0,0
349724,65.8427,-445.685,0,0
351025,65.3064,-440.101,0,0
352327,65.8554,-433.753,0,0
353629,67.9111,-428.027,0,0
354930,70.6827,-423.736,0,0
356232,73.0579,-421.112,0,0
357534,73.5598,-419.233,0,0
358835,72.5789,-416.068,0,0
360137,72.0419,-410.979,0,0
361438,72.8727,-405.347,0,0
362740.1,75.1455,-399.943,0,0
364041.725,77.9778,-395.338,0,0
365343.35,81.5447,-391.481,0,0
366644.975,85.059,-388.964,0,0
367946.6,88.1619,-386.855,0,0
369248.225,91.2426,-385.576,0,0
370549.85,93.517,-385.642,0,0
371851.475,93.19,-385.582,0,0
373153.1,92.1083,-382.919,0,0
374454.725,92.8267,-379.062,0,0
375756.35,94.5758,-375.897,0,0
377057.975,96.0521,-373.461,0,0
378359.6,97.0134,-370.335,0,0
379661,99.0498,-366.622,0,0
380963,101.75,-363.571,0,0
382264,104.48,-360.788,0,0
383566,107.545,-358.239,0,0
384868,110.811,-356.108,0,0
386169,113.671,-354.428,0,0
387471,116.632,-352.487,0,0
388773,119.522,-349.991,0,0
390074,124.012,-347.31,0,0
391376,129.172,-346.172,0,0
392677,133.99,-345.635,0,0
393979,138.457,-345.482,0,0
395280.7,143.172,-344.485,0,0
396582.325,149.91,-343.47,0,0
397883.95,159.239,-344.278,0,0
399185.575,170.224,-349.509,0,0
400006.6,176.558,-356.282,0,0