File: Accelerated corrosion test data/2025-10-18_18-00-03/sample_3.csv
Frequency (Hz),Impedance (ohms),Phase (Radians),Temperature (C),Humidity (%)
10000.0,253.878,-11853.6,0,0
11301.625,226.307,-10499.8,0,0
12603.25,205.158,-9423.16,0,0
13904.875,187.56,-8545.8,0,0
15206.5,175.723,-7810.57,0,0
16508.125,162.712,-7213.02,0,0
17809.75,158.479,-6682.74,0,0
19111.375,148.117,-6229.9,0,0
20413.0,161.67,-5828.23,0,0
21714.625,141.267,-5502.59,0,0
23016.25,129.076,-5195.66,0,0
24317.875,121.322,-4915.01,0,0
25619.5,114.333,-4667.02,0,0
26921.1,110.264,-4434.78,0,0
28222.7,105.135,-4226.37,0,0
29524.4,109.507,-4050.23,0,0
30826,102.248,-3876.51,0,0
32127.6,103.467,-3710.9,0,0
33429.2,100.267,-3587.03,0,0
34730.9,88.8748,-3447.81,0,0
36032.5,84.3191,-3319.08,0,0
37334.1,80.9763,-3200.34,0,0
38635.7,78.5897,-3089.84,0,0
39937.4,76.4638,-2986.83,0,0
41239,75.1556,-2889.42,0,0
42540.6,73.8803,-2799.18,0,0
43842.225,72.6112,-2713.23,0,0
45143.85,71.4987,-2633.09,0,0
46445.475,70.1905,-2556.84,0,0
47747.1,71.2757,-2484.05,0,0
49048.725,69.0768,-2418.07,0,0
50350.35,67.1283,-2352.58,0,0
51651.975,66.7794,-2289.8,0,0
52953.6,67.069,-2229.48,0,0
54255.225,70.0263,-2174.17,0,0
55556.85,67.4066,-2126.75,0,0
56858.475,62.1705,-2073.51,0,0
58160.1,61.5739,-2021.3,0,0
59461.7,62.1707,-1971.7,0,0
60763.3,63.4555,-1924.87,0,0
62065,65.5141,-1879.69,0,0
63366.6,69.2386,-1835.88,0,0
64668.2,78.032,-1793.99,0,0
65969.8,93.7658,-1768.5,0,0
67271.5,76.028,-1743.05,0,0
68573.1,76.1323,-1705.03,0,0
69874.7,76.6187,-1675.84,0,0
71176.3,71.6649,-1644.86,0,0
72478,70.4224,-1612.22,0,0
73779.6,68.8391,-1583.97,0,0
75081.2,65.0623,-1555.64,0,0
76382.825,61.4446,-1526.35,0,0
77684.45,58.7899,-1497.33,0,0
78986.075,56.5288,-1468.67,0,0
80287.7,54.8908,-1440.5,0,0
81589.325,53.8799,-1413.17,0,0
82890.95,53.2629,-1386.53,0,0
84192.575,53.013,-1360.76,0,0
85494.2,52.9015,-1335.58,0,0
86795.825,53.0178,-1311.16,0,0
88097.45,53.4615,-1287.27,0,0
89399.075,54.9157,-1263.39,0,0
90700.7,56.8722,-1241.66,0,0
92002.3,58.9901,-1220.89,0,0
93303.9,61.5547,-1201.84,0,0
94605.6,62.3737,-1187.23,0,0
95907.2,57.3329,-1168.83,0,0
97208.8,55.9963,-1147.44,0,0
98510.4,55.8551,-1127.42,0,0
99812.1,55.4404,-1108.19,0,0
101114,55.3,-1088.33,0,0
102415,56.8016,-1067.84,0,0
103717,60.3044,-1050.11,0,0
105019,63.5847,-1035.69,0,0
106320.175,63.3753,-1021.62,0,0
107621.8,61.6537,-1006.01,0,0
108923.425,59.7529,-988.791,0,0
110225.05,59.7142,-970.383,0,0
111526.675,61.8479,-952.455,0,0
112828.3,64.1362,-936.377,0,0
114129.925,65.4737,-920.493,0,0
115431.55,67.3954,-903.569,0,0
116733.175,71.0486,-886.885,0,0
118034.8,76.9825,-870.687,0,0
119336.425,84.0301,-858.018,0,0
120638.05,90.3032,-852.325,0,0
121939.675,86.8251,-843.903,0,0
123241,87.454,-830.264,0,0
124543,89.1476,-818.496,0,0
125845,90.8615,-808.23,0,0
127146,90.552,-798.323,0,0
128448,88.9119,-787.756,0,0
129749,87.7738,-774.93,0,0
131051,88.9768,-762.773,0,0
132353,87.964,-751.627,0,0
133654,87.0031,-740.004,0,0
134956,85.442,-727.257,0,0
136258,83.7509,-713.933,0,0
137559,83.2944,-698.547,0,0
138860.775,84.687,-685.09,0,0
140162.4,84.182,-671.481,0,0
141464.025,83.3731,-657.58,0,0
142765.65,82.4133,-641.334,0,0
144067.275,82.8208,-624.019,0,0
145368.9,84.4336,-605.99,0,0
146670.525,87.0134,-586.975,0,0
147972.15,91.2611,-567.221,0,0
149273.775,97.9247,-546.524,0,0
150575.4,108.442,-526.574,0,0
151877.025,121.055,-509.55,0,0
153178.65,133.14,-496.263,0,0
154480,143.148,-483.397,0,0
155782,151.9,-467.885,0,0
157084,163.83,-449.892,0,0
158385,179.572,-440.08,0,0
159687,184.02,-424.273,0,0
160988,198.816,-398.232,0,0
162290,223.914,-371.485,0,0
163592,259.321,-349.138,0,0
164893,308.201,-337.309,0,0
166195,358.705,-349.741,0,0
167497,399.175,-379.436,0,0
168798,421.036,-415.741,0,0
170100,419.196,-457.179,0,0
171401.375,407.69,-470.423,0,0
172703.0,405.059,-475.163,0,0
174004.625,411.984,-485.447,0,0
175306.25,414.559,-499.032,0,0
176607.875,415.364,-522.039,0,0
177909.5,390.154,-541.088,0,0
179211.125,366.663,-530.97,0,0
180512.75,364.205,-517.157,0,0
181814.375,369.319,-517.107,0,0
183116.0,361.57,-522.554,0,0
184417.625,347.488,-520.165,0,0
185719.25,333.403,-507.733,0,0
187021,328.087,-485.606,0,0
188322,333.431,-468.739,0,0
189624,337.159,-452.671,0,0
190926,346.495,-438.152,0,0
192227,354.536,-424.857,0,0
193529,366.647,-404.26,0,0
194831,389.691,-388.484,0,0
196132,420.813,-380.185,0,0
197434,446.313,-389.851,0,0
198735,460.919,-401.441,0,0
200037,466.734,-405.499,0,0
201339,474.644,-396.892,0,0
202640.35,496.815,-386.055,0,0
203941.975,529.061,-388.495,0,0
205243.6,555.1,-405.136,0,0
206545.225,565.914,-415.707,0,0
207846.85,588.631,-416.273,0,0
209148.475,623.591,-427.792,0,0
210450.1,654.058,-452.083,0,0
211751.725,679.711,-484.003,0,0
213053.35,701.088,-520.129,0,0
214354.975,713.292,-564.224,0,0
215656.6,716.67,-606.492,0,0
216958.225,715.083,-651.593,0,0
218259.85,701.529,-695.506,0,0
219561,683.681,-730.519,0,0
220863,665.293,-765.913,0,0
222165,637.832,-805.461,0,0
223466,592.552,-830.443,0,0
224768,552.898,-833.533,0,0
226070,531.284,-833.988,0,0
227371,513.611,-842.55,0,0
228673,488.543,-853.864,0,0
229974,463.184,-861.414,0,0
231276,434.162,-865.861,0,0
232578,407.163,-864.735,0,0
233879,382.078,-861.905,0,0
235180.95,359.221,-857.91,0,0
236482.575,334.808,-853.346,0,0
237784.2,309.667,-845.695,0,0
239085.825,286.123,-831.4,0,0
240387.45,267.605,-815.247,0,0
241689.075,252.707,-796.818,0,0
242990.7,243.848,-778.267,0,0
244292.325,239.185,-764.742,0,0
245593.95,231.966,-752.755,0,0
246895.575,226.912,-739.639,0,0
248197.2,222.92,-727.703,0,0
249498.825,222.498,-717.089,0,0
250800,219.912,-711.567,0,0
252102,213.206,-704.797,0,0
253404,206.03,-693.906,0,0
254705,200.99,-679.43,0,0
256007,201.619,-662.856,0,0
257309,207.7,-649.688,0,0
258610,215.13,-639.003,0,0
259912,228.165,-631.217,0,0
261213,243.964,-632.389,0,0
262515,253.275,-645.837,0,0
263817,250.657,-659.776,0,0
265118,240.482,-669.467,0,0
266420,226.07,-672.96,0,0
267721.55,211.475,-667.998,0,0
269023.175,202.537,-658.799,0,0
270324.8,197.024,-648.772,0,0
271626.425,195.667,-639.478,0,0
272928.05,195.084,-632.393,0,0
274229.675,195.341,-624.357,0,0
275531.3,198.651,-616.643,0,0
276832.925,206.066,-611.92,0,0
278134.55,213.53,-613.375,0,0
279436.175,217.985,-619.604,0,0
280737.8,216.48,-628.034,0,0
282039.425,209.848,-634.036,0,0
283341,200.882,-636.617,0,0
284643,191.426,-635.253,0,0
285944,183.288,-630.755,0,0
287246,177.784,-624.256,0,0
288548,175.229,-618.21,0,0
289849,174.581,-613.333,0,0
291151,173.607,-611.505,0,0
292452,170.323,-608.65,0,0
293754,168.443,-603.628,0,0
295056,169.515,-599.227,0,0
296357,172.147,-598.321,0,0
297659,172.683,-600.684,0,0
298960.525,170.189,-603.518,0,0
300262.15,165.432,-605.676,0,0
301563.775,158.978,-606.157,0,0
302865.4,152.246,-604.405,0,0
304167.025,146.044,-601.262,0,0
305468.65,140.781,-596.786,0,0
306770.275,136.958,-591.965,0,0
308071.9,134.353,-587.535,0,0
309373.525,132.108,-584.008,0,0
310675.15,129.66,-581.379,0,0
311976.775,125.815,-578.873,0,0
313278.4,121.163,-574.95,0,0
314580,117.148,-568.986,0,0
315882,115.811,-562.146,0,0
317183,116.251,-556.862,0,0
318485,116.658,-553.259,0,0
319787,116.791,-550.079,0,0
321088,117.062,-547.125,0,0
322390,118.123,-545.067,0,0
323691,119.021,-544.929,0,0
324993,117.833,-546.272,0,0
326295,114.435,-547.09,0,0
327596,110.027,-546.459,0,0
328898,105.336,-544.527,0,0
330200,101.114,-541.793,0,0
331501.125,96.9677,-538.855,0,0
332802.75,92.5185,-535.313,0,0
334104.375,88.2122,-530.803,0,0
335406.0,84.292,-525.458,0,0
336707.625,81.3254,-519.368,0,0
338009.25,79.2988,-513.084,0,0
339310.875,78.0107,-506.512,0,0
340612.5,77.9989,-499.642,0,0
341914.125,79.8878,-493.588,0,0
343215.75,82.6609,-489.46,0,0
344517.375,84.6202,-487.418,0,0
345819.0,85.1226,-485.715,0,0
347121,84.9232,-483.824,0,0
348422,83.9193,-481.415,0,0
349724,83.1883,-477.566,0,0
351025,84.4876,-473.764,0,0
352327,86.1082,-472.087,0,0
353629,86.4281,-471.563,0,0
354930,85.2486,-470.644,0,0
356232,83.5737,-468.847,0,0
357534,81.685,-466.244,0,0
358835,80.5238,-462.666,0,0
360137,80.4734,-459.329,0,0
361438,80.2735,-456.613,0,0
362740.1,79.8953,-453.462,0,0
364041.725,80.6747,-450.093,0,0
365343.35,82.1803,-448.141,0,0
366644.975,82.8079,-447.802,0,0
367946.6,81.3352,-447.451,0,0
369248.225,78.5581,-444.958,0,0
370549.85,78.0232,-440.528,0,0
371851.475,79.6941,-437.939,0,0
373153.1,79.8946,-437.599,0,0
374454.725,78.043,-436.329,0,0
375756.35,76.2047,-433.47,0,0
377057.975,75.5652,-429.789,0,0
378359.6,75.8988,-426.461,0,0
379661,76.8684,-423.87,0,0
380963,77.4328,-422.328,0,0
382264,77.4505,-420.716,0,0
383566,77.3891,-419.427,0,0
384868,76.4845,-418.132,0,0
386169,75.1861,-416.22,0,0
387471,73.7109,-413.689,0,0
388773,72.3907,-410.18,0,0
390074,71.9945,-406.035,0,0
391376,72.843,-401.701,0,0
392677,75.0814,-398.245,0,0
393979,77.3748,-396.203,0,0
395280.7,79.4219,-394.774,0,0
396582.325,81.3573,-394.174,0,0
397883.95,82.5738,-394.458,0,0
399185.575,82.7462,-394.889,0,0
400006.6,82.4068,-395.128,0,0