File: Accelerated corrosion test data/2025-10-18_18-00-03/sample_4.csv
Frequency (Hz),Impedance (ohms),Phase (Radians),Temperature (C),Humidity (%)
10000.0,262.628,-11910.7,0,0
11301.625,233.674,-10552.1,0,0
12603.25,212.787,-9466.49,0,0
13904.875,193.368,-8582.02,0,0
15206.5,180.278,-7855.24,0,0
16508.125,195.395,-7245.58,0,0
17809.75,154.986,-6730.85,0,0
19111.375,145.256,-6272.32,0,0
20413.0,140.186,-5870.38,0,0
21714.625,145.249,-5523.74,0,0
23016.25,124.858,-5223.26,0,0
24317.875,115.873,-4938.15,0,0
25619.5,111.747,-4684.21,0,0
26921.1,106.045,-4454.29,0,0
28222.7,119.996,-4251.67,0,0
29524.4,113.706,-4072.39,0,0
30826,98.5917,-3898.28,0,0
32127.6,100.409,-3737.41,0,0
33429.2,89.8996,-3595.44,0,0
34730.9,85.0306,-3456.89,0,0
36032.5,81.6648,-3329.13,0,0
37334.1,79.2642,-3210.11,0,0
38635.7,77.252,-3097.56,0,0
39937.4,77.2443,-2991.78,0,0
41239,80.3787,-2896.66,0,0
42540.6,78.9929,-2809.3,0,0
43842.225,73.5419,-2724.93,0,0
45143.85,71.1326,-2643.46,0,0
46445.475,70.8326,-2565.85,0,0
47747.1,69.656,-2496.31,0,0
49048.725,65.9956,-2426.57,0,0
50350.35,64.5132,-2359.25,0,0
51651.975,64.0886,-2294.47,0,0
52953.6,65.8296,-2231.16,0,0
54255.225,73.7454,-2174.34,0,0
55556.85,71.4174,-2131.5,0,0
56858.475,65.8084,-2076.87,0,0
58160.1,66.5309,-2024.48,0,0
59461.7,70.7176,-1974.38,0,0
60763.3,81.1892,-1936.08,0,0
62065,70.2106,-1902.91,0,0
63366.6,64.4714,-1856.95,0,0
64668.2,64.7414,-1813.57,0,0
65969.8,66.8651,-1772.66,0,0
67271.5,70.1778,-1736.57,0,0
68573.1,74.21,-1707.83,0,0
69874.7,66.371,-1677.87,0,0
71176.3,64.945,-1642.85,0,0
72478,59.182,-1611.4,0,0
73779.6,57.8509,-1575.02,0,0
75081.2,59.8822,-1541.9,0,0
76382.825,62.1203,-1513.18,0,0
77684.45,65.5383,-1485.23,0,0
78986.075,63.8925,-1462.9,0,0
80287.7,61.0571,-1435.84,0,0
81589.325,60.5967,-1409.77,0,0
82890.95,59.3222,-1384.82,0,0
84192.575,58.0824,-1359.88,0,0
85494.2,57.16,-1335.61,0,0
86795.825,56.3987,-1311.74,0,0
88097.45,54.9267,-1289.01,0,0
89399.075,53.5363,-1264.64,0,0
90700.7,53.4569,-1241.5,0,0
92002.3,53.861,-1218.36,0,0
93303.9,55.1872,-1197.29,0,0
94605.6,53.7397,-1177.05,0,0
95907.2,53.1895,-1154.54,0,0
97208.8,53.8787,-1132.75,0,0
98510.4,55.1007,-1111.09,0,0
99812.1,57.7026,-1090.41,0,0
101114,61.8641,-1071.7,0,0
102415,60.9786,-1056.95,0,0
103717,58.5917,-1034.25,0,0
105019,62.1417,-1010.73,0,0
106320.175,68.807,-990.123,0,0
107621.8,75.611,-972.086,0,0
108923.425,84.1589,-955.446,0,0
110225.05,92.5069,-942.815,0,0
111526.675,98.6214,-932.143,0,0
112828.3,103.639,-922.44,0,0
114129.925,106.904,-913.669,0,0
115431.55,108.836,-905.524,0,0
116733.175,108.484,-896.979,0,0
118034.8,106.552,-886.279,0,0
119336.425,107.335,-872.306,0,0
120638.05,112.605,-867.704,0,0
121939.675,105.112,-860.966,0,0
123241,100.4,-848.456,0,0
124543,97.5298,-835.533,0,0
125845,96.0687,-823.525,0,0
127146,92.6336,-812.857,0,0
128448,87.704,-801.44,0,0
129749,80.4359,-786.827,0,0
131051,75.5223,-768.807,0,0
132353,72.9738,-749.942,0,0
133654,72.1716,-731.063,0,0
134956,72.6997,-712.2,0,0
136258,74.5244,-693.778,0,0
137559,76.9801,-676.282,0,0
138860.775,78.9237,-657.949,0,0
140162.4,82.3805,-638.928,0,0
141464.025,87.547,-619.947,0,0
142765.65,93.4164,-601.732,0,0
144067.275,99.97,-583.383,0,0
145368.9,107.624,-564.714,0,0
146670.525,116.999,-546.067,0,0
147972.15,127.682,-527.92,0,0
149273.775,139.905,-509.892,0,0
150575.4,154.558,-491.267,0,0
151877.025,173.164,-474.578,0,0
153178.65,195.744,-462.482,0,0
154480,217.256,-457.205,0,0
155782,235.158,-453.474,0,0
157084,249.921,-450.588,0,0
158385,265.432,-445.177,0,0
159687,285.502,-444.098,0,0
160988,302.473,-450.059,0,0
162290,310.887,-455.955,0,0
163592,314.622,-456.91,0,0
164893,322.052,-449.8,0,0
166195,338.448,-440.226,0,0
167497,365.834,-440.28,0,0
168798,392.112,-454.665,0,0
170100,411.763,-483.457,0,0
171401.375,409.307,-520.936,0,0
172703.0,385.728,-548.263,0,0
174004.625,353.31,-555.928,0,0
175306.25,324.054,-546.515,0,0
176607.875,304.81,-524.287,0,0
177909.5,297.826,-500.8,0,0
179211.125,296.968,-478.896,0,0
180512.75,300.732,-460.255,0,0
181814.375,304.581,-443.806,0,0
183116.0,307.405,-426.637,0,0
184417.625,311.781,-405.936,0,0
185719.25,319.713,-383.016,0,0
187021,330.896,-358.066,0,0
188322,347.745,-330.5,0,0
189624,371.524,-301.959,0,0
190926,404.001,-274.458,0,0
192227,445.42,-250.434,0,0
193529,495.475,-233.415,0,0
194831,551.504,-225.204,0,0
196132,612.602,-224.481,0,0
197434,681.776,-234.912,0,0
198735,758.446,-262.118,0,0
200037,835.449,-319.51,0,0
201339,890.824,-403.921,0,0
202640.35,915.03,-496.822,0,0
203941.975,918.492,-588.832,0,0
205243.6,898.334,-670.532,0,0
206545.225,867.827,-744.029,0,0
207846.85,820.002,-810.732,0,0
209148.475,757.448,-856.434,0,0
210450.1,696.904,-877.6,0,0
211751.725,645.258,-884.773,0,0
213053.35,601.853,-884.688,0,0
214354.975,569.96,-874.617,0,0
215656.6,552.853,-873.331,0,0
216958.225,531.634,-878.67,0,0
218259.85,509.356,-882.762,0,0
219561,487.58,-886.913,0,0
220863,463.26,-890.181,0,0
222165,439.822,-890.263,0,0
223466,418.051,-888.899,0,0
224768,397.395,-890.084,0,0
226070,372.52,-890.451,0,0
227371,345.015,-887.054,0,0
228673,316.938,-877.26,0,0
229974,293.516,-861.783,0,0
231276,274.419,-845.036,0,0
232578,259.976,-827.474,0,0
233879,247.726,-810.308,0,0
235180.95,239.2,-793.71,0,0
236482.575,232.246,-778.516,0,0
237784.2,227.265,-763.213,0,0
239085.825,225.126,-750.197,0,0
240387.45,223.71,-739.703,0,0
241689.075,221.976,-731.294,0,0
242990.7,219.401,-724.446,0,0
244292.325,214.888,-718.518,0,0
245593.95,208.599,-710.602,0,0
246895.575,203.044,-700.712,0,0
248197.2,199.602,-690.315,0,0
249498.825,197.441,-680.203,0,0
250800,196.361,-672.133,0,0
252102,192.123,-664.862,0,0
253404,187.278,-653.983,0,0
254705,183.514,-641.651,0,0
256007,181.377,-625.339,0,0
257309,184.232,-606.923,0,0
258610,193.18,-588.863,0,0
259912,207.712,-574.422,0,0
261213,226.374,-564.436,0,0
262515,247.83,-560.196,0,0
263817,269.482,-566.249,0,0
265118,286.21,-577.034,0,0
266420,299.935,-591.614,0,0
267721.55,309.828,-613.961,0,0
269023.175,305.117,-639.176,0,0
270324.8,292.557,-654.101,0,0
271626.425,281.918,-664.167,0,0
272928.05,270.25,-672.736,0,0
274229.675,258.458,-681.02,0,0
275531.3,240.971,-688.143,0,0
276832.925,219.248,-688.35,0,0
278134.55,199.517,-677.734,0,0
279436.175,190.299,-662.489,0,0
280737.8,187.336,-652.54,0,0
282039.425,184.758,-643.252,0,0
283341,185.333,-637.686,0,0
284643,184.155,-635.365,0,0
285944,179.266,-633.448,0,0
287246,172.462,-628.16,0,0
288548,167.302,-617.568,0,0
289849,169.229,-605.261,0,0
291151,177.348,-596.259,0,0
292452,189.497,-594.788,0,0
293754,198.687,-602.335,0,0
295056,200.192,-615.353,0,0
296357,192.146,-625.955,0,0
297659,181.17,-629.768,0,0
298960.525,171.801,-630.027,0,0
300262.15,162.627,-629.004,0,0
301563.775,153.991,-626.085,0,0
302865.4,146.642,-622.034,0,0
304167.025,139.693,-617.219,0,0
305468.65,134.044,-611.407,0,0
306770.275,129.954,-605.171,0,0
308071.9,127.466,-599.803,0,0
309373.525,125.157,-596,0,0
310675.15,121.69,-592.189,0,0
311976.775,118.657,-587.601,0,0
313278.4,116.29,-582.91,0,0
314580,114.747,-578.763,0,0
315882,113.291,-575.339,0,0
317183,111.908,-572.321,0,0
318485,110.394,-570.089,0,0
319787,108.391,-569.02,0,0
321088,104.379,-568.413,0,0
322390,98.1986,-566.72,0,0
323691,91.389,-561.817,0,0
324993,86.4395,-555.221,0,0
326295,83.085,-548.4,0,0
327596,80.6375,-541.634,0,0
328898,78.583,-534.553,0,0
330200,78.2642,-527.27,0,0
331501.125,79.5596,-520.977,0,0
332802.75,81.2477,-517.246,0,0
334104.375,81.0925,-514.653,0,0
335406.0,79.6219,-511.454,0,0
336707.625,77.6958,-507.08,0,0
338009.25,76.2012,-501.755,0,0
339310.875,75.4405,-495.578,0,0
340612.5,76.3815,-488.751,0,0
341914.125,79.5865,-482.752,0,0
343215.75,84.0149,-479.169,0,0
344517.375,87.7185,-478.092,0,0
345819.0,89.6578,-478.365,0,0
347121,89.8669,-478.839,0,0
348422,88.5702,-478.484,0,0
349724,86.8544,-477.215,0,0
351025,84.7448,-475.34,0,0
352327,82.7118,-471.979,0,0
353629,82.1263,-468.313,0,0
354930,81.8634,-465.298,0,0
356232,81.5401,-462.536,0,0
357534,81.015,-459.906,0,0
358835,80.2191,-457.143,0,0
360137,79.1016,-453.816,0,0
361438,78.5795,-449.606,0,0
362740.1,79.2721,-445.893,0,0
364041.725,79.6004,-442.726,0,0
365343.35,79.5527,-439.188,0,0
366644.975,80.0601,-434.82,0,0
367946.6,81.466,-430.192,0,0
369248.225,84.3481,-425.708,0,0
370549.85,88.7608,-421.883,0,0
371851.475,94.6823,-420.311,0,0
373153.1,100.112,-422.292,0,0
374454.725,102.16,-426.164,0,0
375756.35,101.744,-428.711,0,0
377057.975,100.578,-430.039,0,0
378359.6,99.7879,-430.663,0,0
379661,98.7238,-431.328,0,0
380963,97.0183,-431.287,0,0
382264,96.6863,-430.452,0,0
383566,96.7305,-432.011,0,0
384868,94.3115,-434.216,0,0
386169,89.8692,-435.504,0,0
387471,84.4691,-433.849,0,0
388773,80.8811,-429.898,0,0
390074,80.1726,-426.102,0,0
391376,80.0382,-424.989,0,0
392677,77.8212,-424.847,0,0
393979,74.3339,-423.654,0,0
395280.7,70.6285,-421.181,0,0
396582.325,67.1554,-417.749,0,0
397883.95,64.2197,-413.522,0,0
399185.575,61.8933,-408.649,0,0
400006.6,60.9258,-405.261,0,0