File: Accelerated corrosion test data/2025-09-30_18-00-03/sample_2.csv
Frequency (Hz),Impedance (ohms),Phase (Radians),Temperature (C),Humidity (%)
10000.0,223.88,-11338.1,0,0
11301.625,199.154,-10041,0,0
12603.25,179.328,-9014.46,0,0
13904.875,179.125,-8183.4,0,0
15206.5,158.124,-7490.25,0,0
16508.125,140.101,-6900.64,0,0
17809.75,130.201,-6396.46,0,0
19111.375,126.414,-5961.49,0,0
20413.0,116.033,-5581.35,0,0
21714.625,124.46,-5253.3,0,0
23016.25,109.334,-4960.58,0,0
24317.875,100.97,-4696.8,0,0
25619.5,95.0667,-4455.11,0,0
26921.1,93.0246,-4238.63,0,0
28222.7,88.8123,-4041.49,0,0
29524.4,92.2567,-3858.7,0,0
30826,86.66,-3704.67,0,0
32127.6,80.8328,-3552.68,0,0
33429.2,78.3293,-3415.16,0,0
34730.9,74.6507,-3285.55,0,0
36032.5,71.8555,-3165.37,0,0
37334.1,70.0397,-3052.92,0,0
38635.7,67.9202,-2948.61,0,0
39937.4,66.4746,-2850.58,0,0
41239,64.6506,-2758.66,0,0
42540.6,63.5179,-2672.53,0,0
43842.225,62.2883,-2591.11,0,0
45143.85,61.1338,-2514.3,0,0
46445.475,60.2598,-2442.5,0,0
47747.1,59.9751,-2373.68,0,0
49048.725,59.9036,-2310.15,0,0
50350.35,57.2154,-2248.27,0,0
51651.975,56.2462,-2190.02,0,0
52953.6,54.5861,-2133.21,0,0
54255.225,53.8733,-2078.92,0,0
55556.85,53.4505,-2027.34,0,0
56858.475,53.383,-1977.91,0,0
58160.1,53.5687,-1931.03,0,0
59461.7,54.1821,-1885.54,0,0
60763.3,55.5773,-1843.15,0,0
62065,58.348,-1805.6,0,0
63366.6,55.7085,-1769.1,0,0
64668.2,52.5102,-1731.28,0,0
65969.8,50.4013,-1692.24,0,0
67271.5,51.0531,-1655.1,0,0
68573.1,53.3499,-1621.58,0,0
69874.7,55.4981,-1591.72,0,0
71176.3,52.5644,-1563.38,0,0
72478,47.3338,-1533,0,0
73779.6,44.8952,-1500.41,0,0
75081.2,45.0229,-1468.57,0,0
76382.825,46.7216,-1438.5,0,0
77684.45,49.4944,-1410.46,0,0
78986.075,52.7935,-1386.38,0,0
80287.7,51.487,-1365,0,0
81589.325,49.0686,-1340.15,0,0
82890.95,47.8248,-1314.69,0,0
84192.575,48.7358,-1290.07,0,0
85494.2,49.4771,-1266.78,0,0
86795.825,50.2207,-1244.7,0,0
88097.45,50.881,-1223.84,0,0
89399.075,50.8643,-1202.39,0,0
90700.7,51.4036,-1182.19,0,0
92002.3,52.939,-1161.25,0,0
93303.9,55.8582,-1142.99,0,0
94605.6,55.2531,-1126.68,0,0
95907.2,55.1751,-1106.92,0,0
97208.8,57.6519,-1090.86,0,0
98510.4,57.5983,-1077.04,0,0
99812.1,52.6903,-1062.64,0,0
101114,49.5269,-1044.55,0,0
102415,47.0452,-1024.5,0,0
103717,46.0404,-1003.52,0,0
105019,49.4513,-983.618,0,0
106320.175,54.3907,-967.049,0,0
107621.8,57.1111,-955.051,0,0
108923.425,55.5009,-942.996,0,0
110225.05,52.3482,-927.282,0,0
111526.675,51.525,-909.804,0,0
112828.3,52.0502,-892.527,0,0
114129.925,54.0449,-875.47,0,0
115431.55,56.78,-859.527,0,0
116733.175,60.1732,-844.403,0,0
118034.8,63.7854,-830.765,0,0
119336.425,67.1779,-818.678,0,0
120638.05,69.1747,-808.649,0,0
121939.675,68.2896,-796.812,0,0
123241,67.8054,-783.665,0,0
124543,67.4411,-770.01,0,0
125845,67.71,-755.302,0,0
127146,69.2879,-740.305,0,0
128448,72.2948,-726.164,0,0
129749,74.9712,-713.17,0,0
131051,77.3022,-700.716,0,0
132353,78.8242,-688.257,0,0
133654,79.7831,-674.697,0,0
134956,81.49,-660.323,0,0
136258,83.7001,-645.783,0,0
137559,86.5799,-630.956,0,0
138860.775,89.2414,-615.661,0,0
140162.4,92.6327,-598.671,0,0
141464.025,98.5809,-580.175,0,0
142765.65,108.066,-562.374,0,0
144067.275,118.822,-546.616,0,0
145368.9,131.334,-531.392,0,0
146670.525,144.887,-517.692,0,0
147972.15,161.512,-504.241,0,0
149273.775,182.945,-492.399,0,0
150575.4,210.066,-491.921,0,0
151877.025,230.425,-504.527,0,0
153178.65,236.18,-520.202,0,0
154480,231.941,-528.992,0,0
155782,227.157,-529.94,0,0
157084,222.769,-527.338,0,0
158385,220.726,-521.564,0,0
159687,219.273,-513.675,0,0
160988,223.047,-506.155,0,0
162290,231.546,-504.804,0,0
163592,227.471,-513.642,0,0
164893,212.283,-510.634,0,0
166195,197.626,-495.569,0,0
167497,191.463,-475.682,0,0
168798,188.52,-453.189,0,0
170100,191.799,-430.69,0,0
171401.375,195.802,-407.564,0,0
172703.0,204.938,-382.867,0,0
174004.625,219.382,-357.89,0,0
175306.25,241.147,-334.387,0,0
176607.875,266.647,-318.196,0,0
177909.5,296.534,-312.15,0,0
179211.125,315.421,-311.12,0,0
180512.75,324.402,-311.924,0,0
181814.375,329.318,-295.56,0,0
183116.0,346.311,-272.361,0,0
184417.625,371.612,-249.176,0,0
185719.25,409.145,-228.482,0,0
187021,450.396,-222.042,0,0
188322,492.677,-217.4,0,0
189624,533.285,-215.151,0,0
190926,581.442,-211.459,0,0
192227,643.638,-219.106,0,0
193529,713.226,-245.373,0,0
194831,772.688,-295.306,0,0
196132,819.973,-356.563,0,0
197434,855.214,-426.476,0,0
198735,876.267,-502.411,0,0
200037,879.087,-586.245,0,0
201339,863.128,-671.311,0,0
202640.35,818.607,-747.025,0,0
203941.975,761.48,-794.106,0,0
205243.6,711.527,-825.749,0,0
206545.225,657.73,-846.46,0,0
207846.85,613.501,-854.27,0,0
209148.475,579.785,-859.43,0,0
210450.1,543.095,-869.995,0,0
211751.725,500.515,-870.791,0,0
213053.35,466.399,-859.907,0,0
214354.975,440.106,-847.193,0,0
215656.6,418.933,-835.594,0,0
216958.225,400.903,-822.571,0,0
218259.85,387.991,-809.33,0,0
219561,379.259,-797.687,0,0
220863,372.956,-788.744,0,0
222165,370.029,-780.526,0,0
223466,370.073,-778.585,0,0
224768,366.535,-780.788,0,0
226070,361.414,-782.578,0,0
227371,357.239,-786.771,0,0
228673,351.013,-794.125,0,0
229974,339.816,-803.678,0,0
231276,323.136,-811.209,0,0
232578,304.092,-813.785,0,0
233879,285.098,-812.965,0,0
235180.95,266.98,-809.916,0,0
236482.575,249.096,-804.431,0,0
237784.2,232.421,-796.891,0,0
239085.825,217.757,-787.454,0,0
240387.45,204.642,-777.221,0,0
241689.075,193.449,-766.277,0,0
242990.7,184.414,-755.677,0,0
244292.325,176.58,-746.747,0,0
245593.95,167.633,-738.91,0,0
246895.575,156.617,-730.953,0,0
248197.2,144.882,-718.761,0,0
249498.825,135.433,-704.109,0,0
250800,128.978,-688.229,0,0
252102,125.177,-672.3,0,0
253404,123.718,-656.69,0,0
254705,124.095,-641.704,0,0
256007,126.847,-627.141,0,0
257309,131.768,-614.348,0,0
258610,138.324,-603.709,0,0
259912,145.59,-594.739,0,0
261213,154.4,-588.011,0,0
262515,163.605,-584.97,0,0
263817,171.152,-585.049,0,0
265118,175.48,-587.842,0,0
266420,175.453,-589.219,0,0
267721.55,175.505,-588.164,0,0
269023.175,174.537,-586.518,0,0
270324.8,174.092,-580.651,0,0
271626.425,179.366,-573.883,0,0
272928.05,188.415,-570.23,0,0
274229.675,201.672,-571.004,0,0
275531.3,214.714,-583.03,0,0
276832.925,217.082,-602.444,0,0
278134.55,207.93,-618.199,0,0
279436.175,195.627,-626.893,0,0
280737.8,183.35,-632.071,0,0
282039.425,169.604,-634.97,0,0
283341,153.859,-633.453,0,0
284643,142.44,-626.47,0,0
285944,130.909,-620.979,0,0
287246,118.97,-610,0,0
288548,112.037,-592.7,0,0
289849,116.122,-573.954,0,0
291151,130.271,-564.424,0,0
292452,141.919,-567.094,0,0
293754,145.405,-575.598,0,0
295056,140.816,-578.216,0,0
296357,143.627,-579.01,0,0
297659,140.962,-588.282,0,0
298960.525,131.36,-591.728,0,0
300262.15,122.939,-591.223,0,0
301563.775,115.429,-588.391,0,0
302865.4,111.087,-584.887,0,0
304167.025,106.77,-584.462,0,0
305468.65,99.4984,-583.912,0,0
306770.275,90.9242,-580.446,0,0
308071.9,83.7677,-574.618,0,0
309373.525,78.1666,-568.323,0,0
310675.15,73.455,-561.702,0,0
311976.775,69.8629,-554.734,0,0
313278.4,67.3986,-548.25,0,0
314580,65.2337,-542.224,0,0
315882,63.3276,-536.357,0,0
317183,61.8748,-530.423,0,0
318485,61.0759,-524.907,0,0
319787,60.1932,-520.078,0,0
321088,59.0251,-515.343,0,0
322390,57.7927,-510.381,0,0
323691,56.4629,-504.946,0,0
324993,56.1291,-498.217,0,0
326295,58.3862,-492.051,0,0
327596,61.391,-488.549,0,0
328898,63.0078,-486.335,0,0
330200,64.1198,-484.568,0,0
331501.125,64.5028,-483.46,0,0
332802.75,63.6109,-482.679,0,0
334104.375,61.4191,-480.952,0,0
335406.0,59.1646,-477.961,0,0
336707.625,57.2373,-474.394,0,0
338009.25,55.793,-470.099,0,0
339310.875,54.9648,-465.81,0,0
340612.5,54.7252,-461.498,0,0
341914.125,54.7648,-457.28,0,0
343215.75,55.1448,-453.144,0,0
344517.375,55.9145,-449.237,0,0
345819.0,57.0034,-445.657,0,0
347121,58.2519,-442.377,0,0
348422,59.5415,-439.412,0,0
349724,61.1628,-436.695,0,0
351025,62.9192,-434.71,0,0
352327,64.1456,-433.2,0,0
353629,64.9801,-431.637,0,0
354930,65.8708,-430.094,0,0
356232,66.7328,-428.637,0,0
357534,67.6593,-427.071,0,0
358835,69.0867,-426.038,0,0
360137,70.1972,-426.093,0,0
361438,70.2578,-426.613,0,0
362740.1,69.4677,-426.849,0,0
364041.725,68.1553,-426.666,0,0
365343.35,66.3852,-425.857,0,0
366644.975,64.6588,-424.242,0,0
367946.6,63.754,-422.192,0,0
369248.225,63.4458,-420.686,0,0
370549.85,62.6144,-419.788,0,0
371851.475,61.3929,-418.562,0,0
373153.1,60.2956,-417.245,0,0
374454.725,58.9073,-415.956,0,0
375756.35,57.2636,-414.404,0,0
377057.975,55.8839,-412.358,0,0
378359.6,54.7344,-411.114,0,0
379661,51.957,-409.473,0,0
380963,49.9562,-405.572,0,0
382264,49.9864,-402.707,0,0
383566,49.0647,-400.994,0,0
384868,47.5815,-398.742,0,0
386169,46.0854,-396.107,0,0
387471,44.7062,-393.05,0,0
388773,43.7439,-389.492,0,0
390074,43.7232,-385.903,0,0
391376,44.3247,-383.366,0,0
392677,43.957,-381.814,0,0
393979,42.3997,-379.609,0,0
395280.7,41.0115,-376.142,0,0
396582.325,40.5141,-372.316,0,0
397883.95,40.5489,-368.596,0,0
399185.575,40.9644,-365.139,0,0
400006.6,41.3214,-363.122,0,0