File: Accelerated corrosion test data/2025-09-30_18-00-03/sample_4.csv
Frequency (Hz),Impedance (ohms),Phase (Radians),Temperature (C),Humidity (%)
10000.0,264.604,-11794.5,0,0
11301.625,236.185,-10449,0,0
12603.25,214.099,-9374.24,0,0
13904.875,195.026,-8499.7,0,0
15206.5,182.381,-7779.86,0,0
16508.125,184.767,-7167.74,0,0
17809.75,157.271,-6665.01,0,0
19111.375,146.629,-6211.88,0,0
20413.0,142.377,-5815.07,0,0
21714.625,144.928,-5470.39,0,0
23016.25,125.882,-5173.43,0,0
24317.875,117.841,-4890.76,0,0
25619.5,113.758,-4638.54,0,0
26921.1,107.801,-4411.43,0,0
28222.7,120.248,-4205.54,0,0
29524.4,113.557,-4030.93,0,0
30826,99.8478,-3860,0,0
32127.6,99.8185,-3701.14,0,0
33429.2,91.0601,-3560.78,0,0
34730.9,86.3295,-3423.82,0,0
36032.5,82.8465,-3297.26,0,0
37334.1,80.7906,-3178.92,0,0
38635.7,78.365,-3067.9,0,0
39937.4,77.8719,-2963.18,0,0
41239,80.4483,-2868.35,0,0
42540.6,79.6465,-2782.75,0,0
43842.225,74.9217,-2699.02,0,0
45143.85,72.0191,-2618.43,0,0
46445.475,71.4373,-2541.44,0,0
47747.1,70.8379,-2472.26,0,0
49048.725,66.9913,-2403.58,0,0
50350.35,65.6028,-2336.55,0,0
51651.975,65.1942,-2272.19,0,0
52953.6,67.2676,-2209.83,0,0
54255.225,74.8821,-2153.91,0,0
55556.85,72.6002,-2110.62,0,0
56858.475,66.7816,-2057.47,0,0
58160.1,67.8086,-2005.29,0,0
59461.7,72.3075,-1955,0,0
60763.3,81.8088,-1918.15,0,0
62065,71.2248,-1885.1,0,0
63366.6,65.8122,-1839.33,0,0
64668.2,65.9047,-1796.39,0,0
65969.8,67.9546,-1756.41,0,0
67271.5,71.953,-1720.9,0,0
68573.1,74.4071,-1692.86,0,0
69874.7,66.6773,-1661.96,0,0
71176.3,66.02,-1627.82,0,0
72478,60.0179,-1596.7,0,0
73779.6,58.7354,-1560.31,0,0
75081.2,60.8989,-1528.19,0,0
76382.825,63.1615,-1499.73,0,0
77684.45,65.7613,-1472.05,0,0
78986.075,64.2411,-1449.6,0,0
80287.7,61.1948,-1422.67,0,0
81589.325,60.4822,-1396.64,0,0
82890.95,59.2919,-1371.47,0,0
84192.575,58.3053,-1346.71,0,0
85494.2,57.6403,-1322.44,0,0
86795.825,57.1923,-1298.94,0,0
88097.45,55.9739,-1276.81,0,0
89399.075,54.1971,-1252.65,0,0
90700.7,54.0493,-1229.56,0,0
92002.3,54.3477,-1206.6,0,0
93303.9,55.593,-1185.85,0,0
94605.6,54.1243,-1165.1,0,0
95907.2,53.8995,-1142.68,0,0
97208.8,55.0137,-1121.2,0,0
98510.4,56.4233,-1099.97,0,0
99812.1,59.3421,-1079.46,0,0
101114,63.9932,-1061.18,0,0
102415,62.6517,-1047.1,0,0
103717,59.6433,-1024.56,0,0
105019,63.9124,-1000.91,0,0
106320.175,70.5864,-981.281,0,0
107621.8,77.406,-963.667,0,0
108923.425,85.7197,-947.465,0,0
110225.05,93.4208,-935.236,0,0
111526.675,99.5745,-924.602,0,0
112828.3,104.482,-915.303,0,0
114129.925,107.405,-907.213,0,0
115431.55,108.565,-899.513,0,0
116733.175,107.207,-891.221,0,0
118034.8,103.836,-879.837,0,0
119336.425,105.002,-864.783,0,0
120638.05,109.902,-859.583,0,0
121939.675,102.719,-852.493,0,0
123241,97.8752,-840.013,0,0
124543,94.6671,-827.301,0,0
125845,91.8225,-814.177,0,0
127146,88.7444,-801.964,0,0
128448,84.621,-788.671,0,0
129749,79.616,-773.663,0,0
131051,75.9829,-756.186,0,0
132353,74.1031,-737.928,0,0
133654,73.7056,-719.315,0,0
134956,74.7644,-700.551,0,0
136258,77.2756,-682.456,0,0
137559,80.4936,-665.32,0,0
138860.775,82.5006,-648.022,0,0
140162.4,85.764,-629.333,0,0
141464.025,90.8631,-610.349,0,0
142765.65,96.9087,-592.031,0,0
144067.275,103.787,-573.469,0,0
145368.9,112.31,-554.691,0,0
146670.525,122.365,-536.31,0,0
147972.15,133.758,-518.598,0,0
149273.775,146.818,-500.279,0,0
150575.4,163.3,-483.102,0,0
151877.025,183.206,-468.522,0,0
153178.65,204.875,-458.419,0,0
154480,225.252,-454.48,0,0
155782,240.551,-451.202,0,0
157084,255.58,-447.447,0,0
158385,271.919,-441.487,0,0
159687,294.01,-440.345,0,0
160988,310.385,-448.158,0,0
162290,317.073,-455.8,0,0
163592,322.297,-453.662,0,0
164893,334.056,-446.95,0,0
166195,352.575,-445.48,0,0
167497,376.593,-448.658,0,0
168798,401.986,-469.48,0,0
170100,410.328,-501.129,0,0
171401.375,401.124,-535.365,0,0
172703.0,372.76,-554.812,0,0
174004.625,339.949,-554.12,0,0
175306.25,315.776,-538.783,0,0
176607.875,301.893,-516.661,0,0
177909.5,297.766,-493.569,0,0
179211.125,299.123,-474.142,0,0
180512.75,302.063,-456.11,0,0
181814.375,306.007,-438.333,0,0
183116.0,310.761,-419.314,0,0
184417.625,318.312,-397.308,0,0
185719.25,330.285,-373.727,0,0
187021,348.134,-349.147,0,0
188322,372.125,-325.546,0,0
189624,402.703,-304.033,0,0
190926,440.642,-286.41,0,0
192227,485.573,-276.645,0,0
193529,532.909,-276.797,0,0
194831,579.674,-284.712,0,0
196132,627.048,-299.302,0,0
197434,676.068,-321.698,0,0
198735,726.014,-357.706,0,0
200037,768.32,-410.62,0,0
201339,792.611,-473.825,0,0
202640.35,797.78,-537.349,0,0
203941.975,789.86,-589.987,0,0
205243.6,779.606,-638.382,0,0
206545.225,765.78,-684.863,0,0
207846.85,744.287,-732.327,0,0
209148.475,706.985,-774.571,0,0
210450.1,662.619,-797.733,0,0
211751.725,624.601,-806.975,0,0
213053.35,594.416,-806.098,0,0
214354.975,577.522,-803.222,0,0
215656.6,570.133,-808.537,0,0
216958.225,559.489,-823.678,0,0
218259.85,542.214,-840.235,0,0
219561,520.814,-853.58,0,0
220863,498.739,-867.259,0,0
222165,471.305,-879.21,0,0
223466,441.109,-884.575,0,0
224768,411.832,-886.552,0,0
226070,381.493,-885.369,0,0
227371,350.742,-877.54,0,0
228673,323.382,-865.344,0,0
229974,299.92,-848.267,0,0
231276,282.222,-828.708,0,0
232578,270.591,-810.164,0,0
233879,262.095,-793.129,0,0
235180.95,256.731,-778.09,0,0
236482.575,252.945,-765.863,0,0
237784.2,249.395,-755.033,0,0
239085.825,247.473,-745.677,0,0
240387.45,245.259,-739.142,0,0
241689.075,241.345,-734.47,0,0
242990.7,235.452,-729.418,0,0
244292.325,228.865,-723.071,0,0
245593.95,221.991,-715.713,0,0
246895.575,216.295,-706.452,0,0
248197.2,212.866,-697.898,0,0
249498.825,208.674,-691.348,0,0
250800,203.262,-683.767,0,0
252102,196.963,-676.109,0,0
253404,188.292,-664.888,0,0
254705,183.163,-648.255,0,0
256007,182.641,-630.37,0,0
257309,187.012,-611.473,0,0
258610,196.925,-594.649,0,0
259912,211.678,-580.304,0,0
261213,231.633,-571.604,0,0
262515,253.018,-571.896,0,0
263817,272.588,-579.137,0,0
265118,287.697,-592.3,0,0
266420,298.334,-612.101,0,0
267721.55,296.789,-635.117,0,0
269023.175,287.749,-651.172,0,0
270324.8,274.626,-663.526,0,0
271626.425,262.299,-666.989,0,0
272928.05,254.522,-671.596,0,0
274229.675,244.067,-678.701,0,0
275531.3,228.183,-684.685,0,0
276832.925,207.918,-683.399,0,0
278134.55,190.601,-673.218,0,0
279436.175,180.09,-659.141,0,0
280737.8,177.343,-646.051,0,0
282039.425,176.623,-637.866,0,0
283341,175.188,-630.174,0,0
284643,176.669,-624.718,0,0
285944,175.899,-621.869,0,0
287246,172.507,-618.923,0,0
288548,167.47,-610.591,0,0
289849,170.348,-598.228,0,0
291151,181.267,-591.575,0,0
292452,193.316,-594.303,0,0
293754,200.33,-604.766,0,0
295056,198.513,-618.694,0,0
296357,188.098,-628.567,0,0
297659,175.307,-631.618,0,0
298960.525,164.371,-629.762,0,0
300262.15,155.729,-626.949,0,0
301563.775,147.614,-623.336,0,0
302865.4,140.023,-618.357,0,0
304167.025,134.076,-612.28,0,0
305468.65,129.668,-606.127,0,0
306770.275,126.799,-599.998,0,0
308071.9,125.166,-595.526,0,0
309373.525,123.042,-592.24,0,0
310675.15,120.073,-589.373,0,0
311976.775,116.446,-586.047,0,0
313278.4,112.78,-581.708,0,0
314580,110.249,-576.984,0,0
315882,108.76,-572.69,0,0
317183,107.398,-569.639,0,0
318485,105.832,-567.515,0,0
319787,102.917,-566.171,0,0
321088,98.5337,-564.453,0,0
322390,92.6228,-561.806,0,0
323691,86.1828,-556.287,0,0
324993,82.0802,-548.758,0,0
326295,79.7368,-541.833,0,0
327596,77.6364,-535.231,0,0
328898,76.5146,-528.036,0,0
330200,76.9413,-521.183,0,0
331501.125,78.6163,-515.799,0,0
332802.75,79.772,-512.391,0,0
334104.375,79.6579,-509.53,0,0
335406.0,78.4803,-506.254,0,0
336707.625,76.9108,-502.034,0,0
338009.25,75.4612,-496.54,0,0
339310.875,75.6325,-490.072,0,0
340612.5,77.6089,-484.047,0,0
341914.125,81.0696,-479.066,0,0
343215.75,85.6465,-476.461,0,0
344517.375,88.8999,-476.619,0,0
345819.0,89.793,-477.562,0,0
347121,88.7682,-477.933,0,0
348422,87.0708,-477.287,0,0
349724,84.799,-475.685,0,0
351025,82.447,-473.013,0,0
352327,80.7164,-469.496,0,0
353629,79.9152,-465.37,0,0
354930,80.4592,-461.593,0,0
356232,81.0429,-459.309,0,0
357534,80.6863,-457.383,0,0
358835,79.3126,-455.219,0,0
360137,77.7549,-451.392,0,0
361438,77.6189,-446.93,0,0
362740.1,78.5763,-442.843,0,0
364041.725,79.9508,-439.831,0,0
365343.35,80.5477,-437.393,0,0
366644.975,80.5573,-433.917,0,0
367946.6,81.8016,-429.491,0,0
369248.225,84.8492,-425.123,0,0
370549.85,89.7161,-422.657,0,0
371851.475,94.6379,-422.579,0,0
373153.1,98.4966,-425.062,0,0
374454.725,99.1894,-428.91,0,0
375756.35,97.3321,-430.672,0,0
377057.975,96.0995,-431.105,0,0
378359.6,94.775,-431.532,0,0
379661,93.0354,-431.359,0,0
380963,91.7154,-430.836,0,0
382264,90.6051,-430.399,0,0
383566,89.7887,-430.466,0,0
384868,87.7788,-431.924,0,0
386169,83.2794,-432.253,0,0
387471,78.6623,-430.003,0,0
388773,75.2479,-425.935,0,0
390074,74.3398,-421.538,0,0
391376,75.0717,-419.302,0,0
392677,74.2776,-419.386,0,0
393979,70.9387,-418.981,0,0
395280.7,66.7464,-416.4,0,0
396582.325,63.5231,-412.33,0,0
397883.95,61.3418,-407.684,0,0
399185.575,59.9174,-403.114,0,0
400006.6,59.1994,-400.089,0,0