File: Accelerated corrosion test data/2025-09-30_18-00-03/sample_8.csv
Frequency (Hz),Impedance (ohms),Phase (Radians),Temperature (C),Humidity (%)
10000.0,322.622,-10874.6,0,0
11301.625,285.196,-9638.22,0,0
12603.25,261.595,-8655.79,0,0
13904.875,232.726,-7861.21,0,0
15206.5,211.476,-7194.38,0,0
16508.125,195.112,-6632.93,0,0
17809.75,181.556,-6151.23,0,0
19111.375,171.877,-5732.89,0,0
20413.0,163.952,-5373.11,0,0
21714.625,154.692,-5054.67,0,0
23016.25,147.903,-4774.68,0,0
24317.875,137.61,-4520.26,0,0
25619.5,130.698,-4289.84,0,0
26921.1,124.852,-4081.05,0,0
28222.7,120.988,-3892.25,0,0
29524.4,118.238,-3720.81,0,0
30826,115.749,-3564.54,0,0
32127.6,113.098,-3419.63,0,0
33429.2,113.528,-3285.35,0,0
34730.9,111.705,-3166.93,0,0
36032.5,108.181,-3057.09,0,0
37334.1,101.86,-2952.68,0,0
38635.7,94.7357,-2853.07,0,0
39937.4,89.339,-2757.92,0,0
41239,86.5251,-2667.94,0,0
42540.6,84.081,-2583.65,0,0
43842.225,83.2847,-2506.13,0,0
45143.85,80.0126,-2432.46,0,0
46445.475,77.712,-2361.95,0,0
47747.1,76.1988,-2295.53,0,0
49048.725,74.0913,-2233.03,0,0
50350.35,72.1663,-2172.59,0,0
51651.975,71.1046,-2114.98,0,0
52953.6,70.6782,-2060.98,0,0
54255.225,69.6832,-2011.31,0,0
55556.85,66.2867,-1962.14,0,0
56858.475,64.1799,-1913.5,0,0
58160.1,63.345,-1867.08,0,0
59461.7,63.3131,-1823.45,0,0
60763.3,61.7743,-1781.45,0,0
62065,61.6208,-1740.53,0,0
63366.6,61.6836,-1701.06,0,0
64668.2,63.2455,-1664.36,0,0
65969.8,62.728,-1631.37,0,0
67271.5,60.1445,-1597,0,0
68573.1,59.2055,-1562.91,0,0
69874.7,58.8761,-1530.01,0,0
71176.3,59.4617,-1498.66,0,0
72478,59.9459,-1469.03,0,0
73779.6,59.0226,-1440.4,0,0
75081.2,58.5759,-1412.19,0,0
76382.825,58.5334,-1384.45,0,0
77684.45,58.3746,-1357.98,0,0
78986.075,57.9799,-1331.83,0,0
80287.7,57.9502,-1305.87,0,0
81589.325,58.3334,-1280.69,0,0
82890.95,59.3701,-1255.66,0,0
84192.575,61.4263,-1232.09,0,0
85494.2,63.1582,-1210.47,0,0
86795.825,63.0661,-1188.94,0,0
88097.45,64.3166,-1166.68,0,0
89399.075,66.8906,-1145.29,0,0
90700.7,69.2351,-1124.87,0,0
92002.3,73.5478,-1105.4,0,0
93303.9,77.2032,-1090.68,0,0
94605.6,75.5573,-1075.63,0,0
95907.2,76.6577,-1057.17,0,0
97208.8,77.4074,-1039.97,0,0
98510.4,79.6343,-1024.37,0,0
99812.1,80.105,-1010.17,0,0
101114,80.772,-995.17,0,0
102415,79.9623,-980.195,0,0
103717,80.4918,-965.342,0,0
105019,79.8456,-950.595,0,0
106320.175,80.1739,-935.722,0,0
107621.8,80.4145,-921.545,0,0
108923.425,80.4502,-907.093,0,0
110225.05,81.2912,-893.574,0,0
111526.675,81.1749,-880.662,0,0
112828.3,80.8527,-867.175,0,0
114129.925,80.5666,-853.793,0,0
115431.55,79.95,-840.834,0,0
116733.175,79.0868,-827.409,0,0
118034.8,78.3416,-813.444,0,0
119336.425,78.5329,-799.329,0,0
120638.05,78.4356,-785.88,0,0
121939.675,78.6814,-771.72,0,0
123241,79.238,-758.094,0,0
124543,79.695,-743.939,0,0
125845,81.3814,-730.293,0,0
127146,83.1369,-717.188,0,0
128448,84.5757,-705.097,0,0
129749,84.6797,-692.668,0,0
131051,84.3317,-678.711,0,0
132353,87.1101,-663.831,0,0
133654,89.5885,-650.097,0,0
134956,92.3743,-637.782,0,0
136258,94.7669,-625.432,0,0
137559,96.6411,-613.569,0,0
138860.775,95.6771,-600.737,0,0
140162.4,96.7689,-585.116,0,0
141464.025,98.6605,-569.213,0,0
142765.65,101.853,-552.353,0,0
144067.275,105.66,-534.985,0,0
145368.9,112.664,-515.485,0,0
146670.525,124.008,-498.845,0,0
147972.15,134.426,-486.098,0,0
149273.775,140.507,-470.149,0,0
150575.4,155.661,-450.989,0,0
151877.025,177.036,-437.951,0,0
153178.65,194.609,-439.155,0,0
154480,202.066,-436.703,0,0
155782,210.656,-427.271,0,0
157084,224.207,-428.14,0,0
158385,222.214,-418.79,0,0
159687,238.309,-403.211,0,0
160988,251.039,-407.6,0,0
162290,257.714,-397.305,0,0
163592,274.238,-394.929,0,0
164893,282.404,-401.899,0,0
166195,283.802,-404.184,0,0
167497,275.136,-404.286,0,0
168798,265.989,-388.652,0,0
170100,267.561,-365.807,0,0
171401.375,275.215,-343.426,0,0
172703.0,290.279,-319.895,0,0
174004.625,311.548,-301.856,0,0
175306.25,333.177,-290.234,0,0
176607.875,350.839,-276.495,0,0
177909.5,376.509,-261.352,0,0
179211.125,405.893,-248.688,0,0
180512.75,438.326,-242.186,0,0
181814.375,472.228,-239.157,0,0
183116.0,506.578,-240.366,0,0
184417.625,537.938,-244.821,0,0
185719.25,569.537,-249.88,0,0
187021,610.146,-252.095,0,0
188322,655.114,-264.241,0,0
189624,701.739,-293.856,0,0
190926,733.506,-321.472,0,0
192227,783.658,-347.639,0,0
193529,829.017,-403.647,0,0
194831,871.073,-470.315,0,0
196132,884.729,-560.392,0,0
197434,873.579,-655.159,0,0
198735,824.746,-733.433,0,0
200037,769.487,-788.787,0,0
201339,699.139,-821.605,0,0
202640.35,643.099,-833.468,0,0
203941.975,586.769,-833.934,0,0
205243.6,542.264,-819.228,0,0
206545.225,510.183,-800.89,0,0
207846.85,490.489,-777.211,0,0
209148.475,483.371,-761.059,0,0
210450.1,478.913,-747.614,0,0
211751.725,483.203,-739.609,0,0
213053.35,489.577,-742.006,0,0
214354.975,488.771,-755.488,0,0
215656.6,475.395,-765.057,0,0
216958.225,462.422,-763.391,0,0
218259.85,461.591,-758.794,0,0
219561,466.968,-765.114,0,0
220863,468.271,-779.879,0,0
222165,463.842,-801.023,0,0
223466,447.312,-824.158,0,0
224768,423.969,-838.768,0,0
226070,399.138,-849.897,0,0
227371,370.141,-855.061,0,0
228673,343.325,-853.352,0,0
229974,320.21,-848.588,0,0
231276,297.553,-843.45,0,0
232578,275.61,-835.157,0,0
233879,254.557,-823.789,0,0
235180.95,236.704,-809.126,0,0
236482.575,222.918,-792.478,0,0
237784.2,214.492,-776.448,0,0
239085.825,208.154,-763.562,0,0
240387.45,202.574,-752.909,0,0
241689.075,195.58,-743.682,0,0
242990.7,187.621,-732.579,0,0
244292.325,181.57,-720.038,0,0
245593.95,177.181,-708.573,0,0
246895.575,172.956,-695.438,0,0
248197.2,171.986,-683.058,0,0
249498.825,171.008,-672.113,0,0
250800,171.325,-659.732,0,0
252102,175.396,-647.708,0,0
253404,182.125,-641.02,0,0
254705,184.595,-636.69,0,0
256007,186.915,-629.634,0,0
257309,192.573,-623.833,0,0
258610,198.338,-620.056,0,0
259912,204.482,-619.002,0,0
261213,208.766,-619.609,0,0
262515,211.783,-621.522,0,0
263817,212.193,-621.581,0,0
265118,214.259,-619.939,0,0
266420,220.44,-617.853,0,0
267721.55,230.813,-620.967,0,0
269023.175,240.41,-632.509,0,0
270324.8,243.149,-651.045,0,0
271626.425,236.622,-670.123,0,0
272928.05,222.458,-687.793,0,0
274229.675,199.286,-698.016,0,0
275531.3,175.748,-697.621,0,0
276832.925,156.477,-689.732,0,0
278134.55,143.05,-679.94,0,0
279436.175,132.58,-669.411,0,0
280737.8,125.477,-658.046,0,0
282039.425,122.101,-648.779,0,0
283341,119.058,-640.741,0,0
284643,117.296,-633.347,0,0
285944,117.428,-627.286,0,0
287246,118.993,-625.057,0,0
288548,116.625,-626.575,0,0
289849,110.541,-626.421,0,0
291151,103.632,-624.09,0,0
292452,96.8301,-620.921,0,0
293754,88.8725,-616.084,0,0
295056,82.165,-608.833,0,0
296357,77.2502,-601.177,0,0
297659,73.4,-593.325,0,0
298960.525,70.6227,-585.475,0,0
300262.15,68.9835,-577.822,0,0
301563.775,68.0276,-570.704,0,0
302865.4,68.1628,-563.938,0,0
304167.025,69.0034,-558.427,0,0
305468.65,69.5991,-554.123,0,0
306770.275,69.8999,-550.106,0,0
308071.9,70.2478,-546.902,0,0
309373.525,69.9785,-544.367,0,0
310675.15,68.6703,-541.885,0,0
311976.775,67.2835,-538.884,0,0
313278.4,65.6186,-535.961,0,0
314580,63.6428,-532.761,0,0
315882,61.5742,-528.704,0,0
317183,60.4047,-524.231,0,0
318485,60.1129,-520.296,0,0
319787,59.8576,-517.092,0,0
321088,59.3431,-514.453,0,0
322390,58.2499,-512.245,0,0
323691,56.6061,-509.635,0,0
324993,54.6543,-507.119,0,0
326295,52.306,-503.869,0,0
327596,50.3063,-500.183,0,0
328898,48.4881,-496.224,0,0
330200,46.9143,-492.106,0,0
331501.125,45.7016,-487.845,0,0
332802.75,44.6728,-483.602,0,0
334104.375,44.0318,-479.305,0,0
335406.0,43.8517,-475.132,0,0
336707.625,43.8006,-471.539,0,0
338009.25,43.7799,-468.216,0,0
339310.875,43.5121,-465.106,0,0
340612.5,43.0324,-462.034,0,0
341914.125,42.3395,-458.929,0,0
343215.75,41.6204,-455.607,0,0
344517.375,40.9736,-452.07,0,0
345819.0,40.5547,-448.371,0,0
347121,40.3041,-444.621,0,0
348422,40.4757,-440.989,0,0
349724,40.759,-437.436,0,0
351025,41.2721,-434.235,0,0
352327,41.7611,-431.237,0,0
353629,42.085,-428.439,0,0
354930,42.5009,-425.621,0,0
356232,42.88,-423.092,0,0
357534,43.0393,-420.723,0,0
358835,42.9246,-418.221,0,0
360137,42.7923,-415.427,0,0
361438,42.799,-412.5,0,0
362740.1,42.9299,-409.489,0,0
364041.725,43.3092,-406.43,0,0
365343.35,44.1256,-403.412,0,0
366644.975,45.1118,-400.733,0,0
367946.6,46.1073,-398.446,0,0
369248.225,47.0131,-396.233,0,0
370549.85,48.1761,-394.17,0,0
371851.475,49.3932,-392.715,0,0
373153.1,50.0804,-391.759,0,0
374454.725,50.0126,-390.771,0,0
375756.35,49.7249,-389.17,0,0
377057.975,49.7665,-387.473,0,0
378359.6,49.7659,-386.119,0,0
379661,49.2699,-384.324,0,0
380963,49.7028,-382.31,0,0
382264,50.1104,-381.98,0,0
383566,48.4331,-381.29,0,0
384868,46.6605,-379.179,0,0
386169,45.4343,-376.444,0,0
387471,44.6675,-373.45,0,0
388773,44.3849,-370.405,0,0
390074,44.5147,-367.553,0,0
391376,44.6611,-365.109,0,0
392677,44.6548,-362.709,0,0
393979,44.6155,-360.237,0,0
395280.7,44.6715,-357.58,0,0
396582.325,44.9389,-355.028,0,0
397883.95,45.3026,-352.552,0,0
399185.575,45.579,-350.264,0,0
400006.6,45.6799,-348.776,0,0