File: Accelerated corrosion test data/2025-09-30_18-00-03/sample_3.csv
Frequency (Hz),Impedance (ohms),Phase (Radians),Temperature (C),Humidity (%)
10000.0,255.136,-11689.6,0,0
11301.625,227.329,-10354.7,0,0
12603.25,205.881,-9293.28,0,0
13904.875,188.441,-8428.69,0,0
15206.5,175.068,-7705.77,0,0
16508.125,164.226,-7115.34,0,0
17809.75,159.498,-6591.28,0,0
19111.375,147.492,-6142.87,0,0
20413.0,157.77,-5745.8,0,0
21714.625,139.258,-5427.39,0,0
23016.25,129.469,-5124.52,0,0
24317.875,120.205,-4847.54,0,0
25619.5,114.159,-4602.75,0,0
26921.1,109.752,-4374.31,0,0
28222.7,104.751,-4169.63,0,0
29524.4,110.843,-3992.57,0,0
30826,101.555,-3822.4,0,0
32127.6,102.168,-3660.62,0,0
33429.2,100.331,-3535.57,0,0
34730.9,88.9372,-3399.33,0,0
36032.5,84.4619,-3272.88,0,0
37334.1,81.3386,-3156.23,0,0
38635.7,79.2078,-3047.12,0,0
39937.4,76.7557,-2945.62,0,0
41239,75.2545,-2849.46,0,0
42540.6,74.4687,-2760.49,0,0
43842.225,72.8132,-2675.55,0,0
45143.85,71.5447,-2596.72,0,0
46445.475,70.9722,-2521.46,0,0
47747.1,71.1212,-2449.45,0,0
49048.725,69.4805,-2384.77,0,0
50350.35,67.5387,-2319.93,0,0
51651.975,67.1465,-2257.92,0,0
52953.6,67.7682,-2198.37,0,0
54255.225,70.7202,-2144.41,0,0
55556.85,67.8459,-2097.78,0,0
56858.475,62.6174,-2044.85,0,0
58160.1,62.2107,-1993.34,0,0
59461.7,62.8786,-1944.45,0,0
60763.3,64.2396,-1897.98,0,0
62065,66.6137,-1853.85,0,0
63366.6,70.2039,-1810.77,0,0
64668.2,79.0936,-1770.03,0,0
65969.8,93.395,-1745.37,0,0
67271.5,77.6227,-1719.98,0,0
68573.1,76.9703,-1683.42,0,0
69874.7,75.7894,-1654.22,0,0
71176.3,70.2721,-1623.1,0,0
72478,68.7645,-1590.76,0,0
73779.6,66.7932,-1562.17,0,0
75081.2,63.3242,-1533.43,0,0
76382.825,60.2021,-1504.14,0,0
77684.45,58.1368,-1475.29,0,0
78986.075,56.1393,-1446.97,0,0
80287.7,54.8272,-1419.18,0,0
81589.325,53.9652,-1392.31,0,0
82890.95,53.4749,-1365.99,0,0
84192.575,53.3153,-1340.49,0,0
85494.2,53.3183,-1315.65,0,0
86795.825,53.5663,-1291.5,0,0
88097.45,54.2052,-1267.72,0,0
89399.075,55.6652,-1243.93,0,0
90700.7,58.0074,-1222.21,0,0
92002.3,61.114,-1201.52,0,0
93303.9,64.6569,-1183.41,0,0
94605.6,66.1002,-1169.45,0,0
95907.2,60.1736,-1152.31,0,0
97208.8,59.2748,-1131.52,0,0
98510.4,59.2869,-1112.85,0,0
99812.1,58.0738,-1094.48,0,0
101114,57.1616,-1074.93,0,0
102415,58.3713,-1054.32,0,0
103717,62.3803,-1036.92,0,0
105019,65.6565,-1023.53,0,0
106320.175,63.7781,-1010.41,0,0
107621.8,60.7712,-994.115,0,0
108923.425,58.9957,-975.989,0,0
110225.05,59.1964,-957.049,0,0
111526.675,61.916,-938.999,0,0
112828.3,64.1873,-923.076,0,0
114129.925,66.1228,-906.838,0,0
115431.55,68.8548,-890.566,0,0
116733.175,72.9698,-874.635,0,0
118034.8,78.6666,-859.726,0,0
119336.425,85.4276,-848.632,0,0
120638.05,89.3667,-842.703,0,0
121939.675,87.5108,-833.475,0,0
123241,87.824,-821.146,0,0
124543,88.5408,-810.331,0,0
125845,88.8371,-800.077,0,0
127146,87.4977,-789.83,0,0
128448,85.0946,-778.178,0,0
129749,83.695,-764.281,0,0
131051,84.9843,-750.883,0,0
132353,84.7093,-739.519,0,0
133654,83.9947,-727.448,0,0
134956,82.6625,-714.611,0,0
136258,81.3669,-700.632,0,0
137559,81.6525,-685.321,0,0
138860.775,82.952,-671.739,0,0
140162.4,82.3449,-657.978,0,0
141464.025,82.6051,-643.055,0,0
142765.65,82.5026,-627.128,0,0
144067.275,83.3395,-609.951,0,0
145368.9,85.2973,-592.116,0,0
146670.525,88.1317,-573.092,0,0
147972.15,93.1619,-553.029,0,0
149273.775,100.505,-532.687,0,0
150575.4,111.453,-512.557,0,0
151877.025,125.146,-496.208,0,0
153178.65,138.178,-483.037,0,0
154480,148.445,-471.251,0,0
155782,156.682,-455.473,0,0
157084,169.022,-438.535,0,0
158385,184.18,-424.862,0,0
159687,193.809,-409.603,0,0
160988,208.321,-381.734,0,0
162290,240.391,-356.399,0,0
163592,281.91,-342.697,0,0
164893,329.067,-338.216,0,0
166195,378.771,-358.74,0,0
167497,410.891,-394.167,0,0
168798,424.767,-434.057,0,0
170100,421.661,-470.905,0,0
171401.375,401.946,-484.622,0,0
172703.0,396.275,-484.747,0,0
174004.625,401.607,-488.038,0,0
175306.25,407.765,-506.013,0,0
176607.875,395.494,-524.38,0,0
177909.5,379.759,-533.946,0,0
179211.125,358.579,-527.123,0,0
180512.75,351.991,-512.724,0,0
181814.375,357.542,-507.413,0,0
183116.0,350.375,-513.813,0,0
184417.625,337.409,-506.377,0,0
185719.25,328.077,-490.696,0,0
187021,326.661,-469.875,0,0
188322,335.159,-452.768,0,0
189624,343.24,-441.688,0,0
190926,352.412,-428.194,0,0
192227,361.951,-415.51,0,0
193529,374.651,-399.037,0,0
194831,399.334,-381.192,0,0
196132,434.393,-381.975,0,0
197434,456.85,-397.035,0,0
198735,463.666,-410.636,0,0
200037,469.046,-409.452,0,0
201339,475.763,-407.112,0,0
202640.35,489.511,-397.157,0,0
203941.975,517.601,-391.107,0,0
205243.6,549.419,-399.47,0,0
206545.225,569.66,-418.973,0,0
207846.85,583.059,-427.99,0,0
209148.475,607.455,-432.607,0,0
210450.1,640.279,-449.133,0,0
211751.725,669.156,-477.899,0,0
213053.35,692.229,-511.34,0,0
214354.975,711.925,-553.632,0,0
215656.6,720.174,-601.569,0,0
216958.225,720.879,-651.611,0,0
218259.85,705.648,-700.716,0,0
219561,680.552,-740.766,0,0
220863,660.292,-774.092,0,0
222165,627.167,-812.587,0,0
223466,582.975,-835.351,0,0
224768,542.829,-838.711,0,0
226070,519.2,-836.694,0,0
227371,502.283,-846.715,0,0
228673,477.207,-859.012,0,0
229974,446.433,-867.856,0,0
231276,414.478,-869.008,0,0
232578,385.983,-864.879,0,0
233879,360.522,-859.184,0,0
235180.95,336.289,-852.933,0,0
236482.575,311.31,-844.846,0,0
237784.2,287.67,-832.636,0,0
239085.825,266.032,-816.244,0,0
240387.45,250.058,-796.553,0,0
241689.075,239.594,-777.452,0,0
242990.7,233.191,-759.509,0,0
244292.325,230.149,-744.789,0,0
245593.95,226.943,-734.156,0,0
246895.575,223.089,-723.47,0,0
248197.2,219.541,-713.196,0,0
249498.825,217.789,-703.586,0,0
250800,215.634,-696.516,0,0
252102,210.634,-689.951,0,0
253404,203.714,-679.77,0,0
254705,200.107,-664.863,0,0
256007,201.534,-649.221,0,0
257309,210.086,-635.705,0,0
258610,220.481,-629.74,0,0
259912,230.299,-625.318,0,0
261213,242.894,-627.762,0,0
262515,250.526,-638.908,0,0
263817,247.719,-652.362,0,0
265118,237.272,-661.229,0,0
266420,222.747,-662.936,0,0
267721.55,209.917,-657.344,0,0
269023.175,201.975,-647.767,0,0
270324.8,198.487,-638.174,0,0
271626.425,198.243,-629.452,0,0
272928.05,199.672,-623.313,0,0
274229.675,200.897,-618.203,0,0
275531.3,204.394,-613.151,0,0
276832.925,210.438,-610.637,0,0
278134.55,217.089,-614.892,0,0
279436.175,217.871,-623.842,0,0
280737.8,210.597,-632.045,0,0
282039.425,201.14,-633.751,0,0
283341,191.934,-633.212,0,0
284643,183.156,-629.298,0,0
285944,175.915,-623.583,0,0
287246,170.561,-615.649,0,0
288548,169.748,-606.781,0,0
289849,172.313,-601.887,0,0
291151,173.123,-599.792,0,0
292452,172.901,-597.994,0,0
293754,172.728,-595.178,0,0
295056,175.131,-593.561,0,0
296357,177.582,-596.039,0,0
297659,176.452,-600.981,0,0
298960.525,171.039,-605.592,0,0
300262.15,163.582,-607.073,0,0
301563.775,155.979,-606.517,0,0
302865.4,148.478,-604.013,0,0
304167.025,141.976,-600.172,0,0
305468.65,136.648,-595.238,0,0
306770.275,132.414,-590.239,0,0
308071.9,129.702,-585.37,0,0
309373.525,127.316,-581.996,0,0
310675.15,123.72,-579.069,0,0
311976.775,119.52,-575.107,0,0
313278.4,115.437,-569.998,0,0
314580,112.591,-563.391,0,0
315882,112.296,-556.779,0,0
317183,113.639,-552.162,0,0
318485,114.643,-549.893,0,0
319787,114.056,-548.024,0,0
321088,113.171,-545.587,0,0
322390,112.977,-543.478,0,0
323691,112.725,-542.663,0,0
324993,111.096,-542.723,0,0
326295,107.943,-542.64,0,0
327596,103.802,-541.393,0,0
328898,99.7669,-538.94,0,0
330200,95.9427,-536.422,0,0
331501.125,91.7249,-533.518,0,0
332802.75,87.3136,-529.627,0,0
334104.375,83.139,-524.861,0,0
335406.0,79.4901,-518.943,0,0
336707.625,77.2743,-512.501,0,0
338009.25,76.024,-506.26,0,0
339310.875,75.4507,-499.917,0,0
340612.5,76.3965,-493.712,0,0
341914.125,78.6236,-488.907,0,0
343215.75,80.781,-485.944,0,0
344517.375,81.9508,-484.212,0,0
345819.0,81.8615,-482.569,0,0
347121,81.1368,-480.402,0,0
348422,80.1521,-477.394,0,0
349724,80.1351,-473.925,0,0
351025,80.9658,-470.965,0,0
352327,82.0223,-469.497,0,0
353629,81.6152,-468.985,0,0
354930,79.535,-467.71,0,0
356232,77.41,-464.985,0,0
357534,75.9875,-461.568,0,0
358835,75.0916,-458.123,0,0
360137,74.5902,-454.49,0,0
361438,74.7242,-450.876,0,0
362740.1,75.4638,-447.597,0,0
364041.725,76.5312,-445.003,0,0
365343.35,77.9198,-443.53,0,0
366644.975,78.1396,-443.57,0,0
367946.6,75.5121,-443.159,0,0
369248.225,72.5833,-439.622,0,0
370549.85,72.5238,-434.527,0,0
371851.475,74.4998,-431.954,0,0
373153.1,74.8054,-431.371,0,0
374454.725,73.3499,-429.95,0,0
375756.35,71.8969,-427.294,0,0
377057.975,71.0789,-423.786,0,0
378359.6,71.473,-420.257,0,0
379661,72.3407,-417.569,0,0
380963,73.1088,-415.473,0,0
382264,73.915,-413.821,0,0
383566,74.065,-413.087,0,0
384868,72.9331,-412.022,0,0
386169,71.4718,-409.957,0,0
387471,70.1609,-407.178,0,0
388773,69.3772,-403.793,0,0
390074,69.1243,-400.031,0,0
391376,69.8601,-396.136,0,0
392677,71.4901,-392.615,0,0
393979,73.9458,-390.062,0,0
395280.7,76.4739,-388.744,0,0
396582.325,78.5426,-388.671,0,0
397883.95,79.4531,-389.367,0,0
399185.575,78.9578,-390,0,0
400006.6,78.0044,-390.043,0,0