File: Accelerated corrosion test data/2025-09-30_18-00-03/sample_7.csv
Frequency (Hz),Impedance (ohms),Phase (Radians),Temperature (C),Humidity (%)
10000.0,277.953,-12022,0,0
11301.625,249.664,-10636.2,0,0
12603.25,264.196,-9593.63,0,0
13904.875,212.333,-8701.02,0,0
15206.5,200.44,-7967.19,0,0
16508.125,174.519,-7331.52,0,0
17809.75,172.701,-6779.41,0,0
19111.375,182.637,-6343.48,0,0
20413.0,173.943,-5949.5,0,0
21714.625,157.366,-5607.08,0,0
23016.25,132.652,-5287.97,0,0
24317.875,125.023,-4996.57,0,0
25619.5,121.38,-4734.71,0,0
26921.1,125.527,-4490.7,0,0
28222.7,181.61,-4288.68,0,0
29524.4,136.822,-4145.32,0,0
30826,137.109,-3962.58,0,0
32127.6,119.893,-3819.89,0,0
33429.2,104,-3669.16,0,0
34730.9,95.0241,-3526.03,0,0
36032.5,90.8481,-3393.01,0,0
37334.1,88.3667,-3270.1,0,0
38635.7,88.4531,-3154.22,0,0
39937.4,98.7215,-3054.36,0,0
41239,88.6151,-2966.96,0,0
42540.6,82.0217,-2871.48,0,0
43842.225,81.3823,-2783.11,0,0
45143.85,82.3675,-2706.49,0,0
46445.475,79.2184,-2633.56,0,0
47747.1,72.8151,-2558.22,0,0
49048.725,70.2017,-2488.41,0,0
50350.35,68.1594,-2421.6,0,0
51651.975,66.4933,-2358.45,0,0
52953.6,65.5857,-2298.18,0,0
54255.225,64.2735,-2241.78,0,0
55556.85,63.2986,-2187.07,0,0
56858.475,62.5065,-2135.21,0,0
58160.1,61.7577,-2084.93,0,0
59461.7,61.7896,-2037.91,0,0
60763.3,61.3517,-1994.29,0,0
62065,59.3925,-1951.23,0,0
63366.6,58.3296,-1908.94,0,0
64668.2,57.2236,-1868.42,0,0
65969.8,57.2942,-1830.14,0,0
67271.5,55.5087,-1793.52,0,0
68573.1,54.4296,-1757.05,0,0
69874.7,54.044,-1721.87,0,0
71176.3,53.5835,-1688.53,0,0
72478,52.6333,-1656.29,0,0
73779.6,51.7248,-1624.59,0,0
75081.2,51.2319,-1594.04,0,0
76382.825,50.7787,-1564.32,0,0
77684.45,50.4566,-1535.6,0,0
78986.075,50.1915,-1507.75,0,0
80287.7,49.9864,-1480.79,0,0
81589.325,49.7367,-1454.61,0,0
82890.95,49.694,-1429.22,0,0
84192.575,49.6265,-1404.21,0,0
85494.2,49.8816,-1380.27,0,0
86795.825,49.9845,-1357,0,0
88097.45,50.2109,-1334.13,0,0
89399.075,50.0843,-1312.21,0,0
90700.7,50.5559,-1290.36,0,0
92002.3,50.9916,-1269.2,0,0
93303.9,51.1456,-1248.66,0,0
94605.6,53.0192,-1228.89,0,0
95907.2,52.5312,-1210.58,0,0
97208.8,52.2014,-1191.11,0,0
98510.4,53.1536,-1171.78,0,0
99812.1,52.9968,-1153.39,0,0
101114,54.0494,-1134.63,0,0
102415,55.4979,-1116.8,0,0
103717,58.4828,-1099.94,0,0
105019,59.5434,-1085.07,0,0
106320.175,59.0176,-1069.39,0,0
107621.8,60.2674,-1052.9,0,0
108923.425,60.8274,-1037.64,0,0
110225.05,61.1254,-1021.05,0,0
111526.675,64.0169,-1004.04,0,0
112828.3,68.0898,-987.934,0,0
114129.925,73.0842,-974.868,0,0
115431.55,77.9472,-962.24,0,0
116733.175,85.0546,-952.418,0,0
118034.8,87.7634,-947.456,0,0
119336.425,90.0898,-942.075,0,0
120638.05,84.858,-940.78,0,0
121939.675,75.0893,-930.677,0,0
123241,68.7962,-917.218,0,0
124543,64.8079,-902.516,0,0
125845,61.4308,-889.144,0,0
127146,58.6362,-874.688,0,0
128448,56.8218,-859.926,0,0
129749,55.6647,-845.274,0,0
131051,55.0625,-830.792,0,0
132353,54.4617,-815.763,0,0
133654,55.3107,-800.288,0,0
134956,58.145,-785.354,0,0
136258,63.0017,-773.263,0,0
137559,64.0173,-764.414,0,0
138860.775,62.674,-753.34,0,0
140162.4,62.5447,-739.932,0,0
141464.025,62.9767,-727.019,0,0
142765.65,63.7131,-713.172,0,0
144067.275,65.8319,-699.58,0,0
145368.9,67.846,-687.022,0,0
146670.525,68.917,-673.68,0,0
147972.15,70.8808,-660.085,0,0
149273.775,72.5607,-646.827,0,0
150575.4,73.8297,-631.37,0,0
151877.025,76.6242,-614.366,0,0
153178.65,82.0146,-596.612,0,0
154480,89.2233,-579.253,0,0
155782,99.0581,-562.663,0,0
157084,110.67,-548.31,0,0
158385,121.878,-536.967,0,0
159687,129.549,-527.139,0,0
160988,133.746,-509.852,0,0
162290,145.578,-485.823,0,0
163592,166.12,-462.486,0,0
164893,195.647,-443.904,0,0
166195,227.704,-428.719,0,0
167497,275.777,-421.039,0,0
168798,326.58,-435.053,0,0
170100,366.567,-467.39,0,0
171401.375,395.83,-516.897,0,0
172703.0,399.202,-569.056,0,0
174004.625,373.743,-613.986,0,0
175306.25,338.863,-631.949,0,0
176607.875,319.864,-621.834,0,0
177909.5,327.296,-628.48,0,0
179211.125,320.562,-664.294,0,0
180512.75,283.337,-680.913,0,0
181814.375,248.074,-687.674,0,0
183116.0,209.817,-674.126,0,0
184417.625,183.8,-651.214,0,0
185719.25,170.185,-628.053,0,0
187021,157.128,-603.513,0,0
188322,154.702,-578.166,0,0
189624,150.103,-562.342,0,0
190926,144.584,-539.575,0,0
192227,145.557,-513.937,0,0
193529,149.824,-490.074,0,0
194831,157.797,-466.304,0,0
196132,169.712,-444.833,0,0
197434,183.456,-425.996,0,0
198735,197.716,-407.432,0,0
200037,214.13,-388.445,0,0
201339,236.194,-369.635,0,0
202640.35,264.33,-352.245,0,0
203941.975,298.27,-342.187,0,0
205243.6,333.706,-341.135,0,0
206545.225,368.768,-349.453,0,0
207846.85,391.335,-362.278,0,0
209148.475,420.415,-358.218,0,0
210450.1,471.795,-380.579,0,0
211751.725,503,-430.686,0,0
213053.35,508.05,-476.156,0,0
214354.975,502.651,-519.142,0,0
215656.6,483.46,-548.969,0,0
216958.225,469.371,-571.674,0,0
218259.85,446.116,-592.747,0,0
219561,417.841,-601.589,0,0
220863,394.247,-592.907,0,0
222165,384.884,-578.802,0,0
223466,386.978,-568.188,0,0
224768,393.314,-561.205,0,0
226070,407.958,-557.447,0,0
227371,425.795,-567.718,0,0
228673,441.861,-585.639,0,0
229974,448.94,-616.985,0,0
231276,442.594,-651.405,0,0
232578,424.87,-680.359,0,0
233879,397.502,-709.895,0,0
235180.95,350.912,-722.665,0,0
236482.575,313.974,-708.883,0,0
237784.2,292.761,-696.183,0,0
239085.825,270.975,-677.545,0,0
240387.45,266.569,-656.974,0,0
241689.075,263.677,-650.087,0,0
242990.7,252.889,-641.947,0,0
244292.325,246.785,-624.682,0,0
245593.95,253.277,-609.528,0,0
246895.575,259.431,-605.697,0,0
248197.2,261.796,-603.537,0,0
249498.825,264.07,-601.812,0,0
250800,265.66,-602.429,0,0
252102,266.717,-603.177,0,0
253404,265.713,-606.762,0,0
254705,261.466,-611.66,0,0
256007,252.017,-613.327,0,0
257309,242.755,-609.517,0,0
258610,235.03,-602.208,0,0
259912,231.3,-592.707,0,0
261213,230.639,-581.717,0,0
262515,237.353,-569.729,0,0
263817,252.048,-566.455,0,0
265118,261.66,-574.687,0,0
266420,264.428,-582.168,0,0
267721.55,266.502,-590.364,0,0
269023.175,264.001,-598.717,0,0
270324.8,263.02,-603.833,0,0
271626.425,264.74,-613.546,0,0
272928.05,263.59,-634.669,0,0
274229.675,242.182,-658.982,0,0
275531.3,206.976,-665.953,0,0
276832.925,174.274,-655.728,0,0
278134.55,151.752,-634.403,0,0
279436.175,142.2,-611.103,0,0
280737.8,140.255,-592.312,0,0
282039.425,140.548,-579.534,0,0
283341,138.509,-568.2,0,0
284643,137.85,-554.127,0,0
285944,142.026,-541.679,0,0
287246,146.827,-532.904,0,0
288548,149.867,-524.968,0,0
289849,154.697,-515.554,0,0
291151,161.806,-507.866,0,0
292452,169.497,-502.645,0,0
293754,176.897,-498.527,0,0
295056,184.74,-494.478,0,0
296357,195.013,-490.81,0,0
297659,207.828,-490.275,0,0
298960.525,221.543,-493.949,0,0
300262.15,235.329,-501.817,0,0
301563.775,249.541,-515.997,0,0
302865.4,258.471,-541.102,0,0
304167.025,250.103,-568.523,0,0
305468.65,233.491,-587.004,0,0
306770.275,213.208,-597.762,0,0
308071.9,192.961,-600.706,0,0
309373.525,175.228,-598.306,0,0
310675.15,161.419,-592.77,0,0
311976.775,150.621,-586.365,0,0
313278.4,141.782,-580.35,0,0
314580,133.479,-573.639,0,0
315882,127.222,-565.767,0,0
317183,123.14,-558.39,0,0
318485,119.924,-551.955,0,0
319787,117.786,-545.838,0,0
321088,116.718,-541.419,0,0
322390,114.771,-538.4,0,0
323691,112.046,-535.37,0,0
324993,109.01,-531.941,0,0
326295,106.376,-528.29,0,0
327596,103.815,-525.075,0,0
328898,100.826,-522.201,0,0
330200,97.6279,-518.777,0,0
331501.125,94.5673,-515.566,0,0
332802.75,90.6713,-512.589,0,0
334104.375,86.0533,-508.331,0,0
335406.0,81.9958,-502.888,0,0
336707.625,78.6512,-496.815,0,0
338009.25,76.1781,-490.427,0,0
339310.875,74.6275,-484.065,0,0
340612.5,73.5529,-477.84,0,0
341914.125,73.0495,-471.686,0,0
343215.75,73.1945,-465.804,0,0
344517.375,74.0908,-460.383,0,0
345819.0,75.2786,-455.967,0,0
347121,76.1568,-452.42,0,0
348422,76.1146,-449.254,0,0
349724,75.4794,-445.382,0,0
351025,75.0362,-440.865,0,0
352327,75.4951,-435.701,0,0
353629,77.0542,-431.006,0,0
354930,79.2492,-427.409,0,0
356232,80.8524,-425.323,0,0
357534,80.9775,-423.52,0,0
358835,79.9095,-420.816,0,0
360137,79.045,-416.205,0,0
361438,79.9107,-411.074,0,0
362740.1,81.6888,-406.593,0,0
364041.725,83.8695,-402.749,0,0
365343.35,86.5229,-399.424,0,0
366644.975,89.2767,-397.278,0,0
367946.6,91.3422,-395.492,0,0
369248.225,93.5713,-394.229,0,0
370549.85,94.4246,-394.313,0,0
371851.475,92.9566,-393.268,0,0
373153.1,91.7656,-389.629,0,0
374454.725,92.3418,-385.406,0,0
375756.35,93.7173,-381.532,0,0
377057.975,95.4785,-378.051,0,0
378359.6,97.2868,-374.562,0,0
379661,99.9281,-370.862,0,0
380963,103.173,-368.018,0,0
382264,106.447,-365.619,0,0
383566,110.015,-363.827,0,0
384868,113.292,-362.66,0,0
386169,116.062,-361.715,0,0
387471,118.732,-360.346,0,0
388773,121.614,-358.914,0,0
390074,125.148,-357.375,0,0
391376,129.35,-356.488,0,0
392677,133.498,-356.118,0,0
393979,138.342,-356.05,0,0
395280.7,143.861,-357.036,0,0
396582.325,149.583,-359.718,0,0
397883.95,155.174,-364.174,0,0
399185.575,159.388,-371.383,0,0
400006.6,160.252,-376.96,0,0