File: Accelerated corrosion test data/2025-10-20_06-00-03/sample_3.csv
Frequency (Hz),Impedance (ohms),Phase (Radians),Temperature (C),Humidity (%)
10000.0,253.224,-11949.7,0,0
11301.625,225.852,-10584.7,0,0
12603.25,204.572,-9499.45,0,0
13904.875,187.208,-8614.77,0,0
15206.5,175.877,-7872.95,0,0
16508.125,162.703,-7271.75,0,0
17809.75,158.075,-6736.71,0,0
19111.375,148.15,-6279.31,0,0
20413.0,163.042,-5872.66,0,0
21714.625,141.437,-5547.79,0,0
23016.25,128.986,-5238.21,0,0
24317.875,121.152,-4955.45,0,0
25619.5,114.465,-4704.39,0,0
26921.1,109.801,-4470.8,0,0
28222.7,105.167,-4260.92,0,0
29524.4,110.281,-4082.01,0,0
30826,102.713,-3908.28,0,0
32127.6,102.619,-3740.75,0,0
33429.2,100.448,-3616.39,0,0
34730.9,88.8047,-3476.02,0,0
36032.5,84.1993,-3346.39,0,0
37334.1,81.0807,-3227.09,0,0
38635.7,78.5819,-3115.2,0,0
39937.4,76.1054,-3011.03,0,0
41239,74.9402,-2912.83,0,0
42540.6,73.8468,-2822.05,0,0
43842.225,72.416,-2735.27,0,0
45143.85,71.435,-2654.84,0,0
46445.475,70.1991,-2577.58,0,0
47747.1,70.8307,-2504.27,0,0
49048.725,68.897,-2438.23,0,0
50350.35,67.0012,-2372.07,0,0
51651.975,66.5103,-2308.67,0,0
52953.6,66.6858,-2248.21,0,0
54255.225,69.2987,-2192.17,0,0
55556.85,67.1847,-2143.7,0,0
56858.475,61.9913,-2090.67,0,0
58160.1,61.3356,-2038.09,0,0
59461.7,61.8144,-1988.06,0,0
60763.3,63.1037,-1940.96,0,0
62065,64.9509,-1895.39,0,0
63366.6,68.8065,-1851.16,0,0
64668.2,77.211,-1808.7,0,0
65969.8,92.5538,-1781.41,0,0
67271.5,75.6784,-1756.72,0,0
68573.1,76.1547,-1718.37,0,0
69874.7,77.2551,-1688.14,0,0
71176.3,72.1585,-1657.77,0,0
72478,71.1501,-1624.63,0,0
73779.6,70.1241,-1596.5,0,0
75081.2,66.3657,-1568.72,0,0
76382.825,62.4453,-1539.64,0,0
77684.45,59.475,-1510.65,0,0
78986.075,56.8044,-1481.8,0,0
80287.7,55.0514,-1453.39,0,0
81589.325,53.8143,-1425.76,0,0
82890.95,53.1656,-1398.96,0,0
84192.575,52.736,-1372.94,0,0
85494.2,52.5628,-1347.64,0,0
86795.825,52.5379,-1323,0,0
88097.45,53.0174,-1298.81,0,0
89399.075,54.2836,-1274.68,0,0
90700.7,56.0873,-1252.86,0,0
92002.3,58.0875,-1231.65,0,0
93303.9,60.7248,-1212.11,0,0
94605.6,61.8819,-1197.18,0,0
95907.2,56.8932,-1178.84,0,0
97208.8,55.5599,-1157.27,0,0
98510.4,55.3939,-1137.07,0,0
99812.1,55.2245,-1117.72,0,0
101114,55.0291,-1097.87,0,0
102415,56.4575,-1077.23,0,0
103717,60.1216,-1059.35,0,0
105019,63.6633,-1044.55,0,0
106320.175,63.7276,-1030.72,0,0
107621.8,61.9489,-1015.3,0,0
108923.425,59.8943,-998.417,0,0
110225.05,59.5642,-979.975,0,0
111526.675,61.5159,-961.744,0,0
112828.3,63.7534,-945.719,0,0
114129.925,64.841,-929.958,0,0
115431.55,66.2627,-912.877,0,0
116733.175,69.3824,-895.791,0,0
118034.8,75.1641,-878.63,0,0
119336.425,82.1072,-865.645,0,0
120638.05,89.3592,-859.593,0,0
121939.675,85.6017,-851.384,0,0
123241,85.9881,-837.015,0,0
124543,88.039,-824.791,0,0
125845,90.3237,-813.841,0,0
127146,90.9026,-803.897,0,0
128448,90.2452,-794.036,0,0
129749,89.2437,-781.818,0,0
131051,90.247,-769.996,0,0
132353,88.8935,-759.277,0,0
133654,87.757,-747.457,0,0
134956,86.3421,-734.719,0,0
136258,84.879,-721.591,0,0
137559,84.179,-706.504,0,0
138860.775,85.772,-693.016,0,0
140162.4,85.1248,-679.96,0,0
141464.025,84.1276,-666.46,0,0
142765.65,82.7029,-650.5,0,0
144067.275,82.6505,-633.23,0,0
145368.9,84.0954,-615.205,0,0
146670.525,86.2493,-596.366,0,0
147972.15,90.1864,-576.852,0,0
149273.775,95.9834,-556.487,0,0
150575.4,105.455,-536.261,0,0
151877.025,117.205,-518.413,0,0
153178.65,129.207,-503.974,0,0
154480,139.708,-490.254,0,0
155782,149.133,-475.335,0,0
157084,160.485,-458.101,0,0
158385,176.459,-447.257,0,0
159687,181.202,-433.46,0,0
160988,193.337,-408.745,0,0
162290,214.478,-381.895,0,0
163592,246.062,-356.082,0,0
164893,292.84,-340.659,0,0
166195,344.647,-347.016,0,0
167497,388.19,-372.707,0,0
168798,411.475,-406.361,0,0
170100,417.525,-442.537,0,0
171401.375,412.485,-456.842,0,0
172703.0,415.119,-467.276,0,0
174004.625,422.606,-479.973,0,0
175306.25,430.015,-496.289,0,0
176607.875,432.002,-526.15,0,0
177909.5,402.892,-552.273,0,0
179211.125,372.413,-542.471,0,0
180512.75,368.03,-525.519,0,0
181814.375,374.487,-521.46,0,0
183116.0,372.218,-529.486,0,0
184417.625,359.846,-533.436,0,0
185719.25,341.798,-527.267,0,0
187021,330.117,-507.531,0,0
188322,328.703,-489.256,0,0
189624,329.346,-469.843,0,0
190926,337.953,-451.858,0,0
192227,346.456,-437.025,0,0
193529,357.677,-417.026,0,0
194831,378.665,-402.002,0,0
196132,405.36,-390.851,0,0
197434,431.189,-396.156,0,0
198735,445.89,-405.054,0,0
200037,452.82,-406.378,0,0
201339,461.465,-396.097,0,0
202640.35,485.685,-385.514,0,0
203941.975,516.137,-387.263,0,0
205243.6,542.203,-402.067,0,0
206545.225,554.906,-410.905,0,0
207846.85,576.359,-409.939,0,0
209148.475,611.839,-417.882,0,0
210450.1,644.196,-438.256,0,0
211751.725,674.789,-468.208,0,0
213053.35,699.827,-503.396,0,0
214354.975,715.738,-548.889,0,0
215656.6,722.044,-591.955,0,0
216958.225,723.317,-638.024,0,0
218259.85,711.456,-683.793,0,0
219561,695.373,-720.63,0,0
220863,680.187,-757.649,0,0
222165,655.484,-800.459,0,0
223466,610.648,-832.229,0,0
224768,568.297,-840.43,0,0
226070,541.119,-841.956,0,0
227371,520.828,-849.52,0,0
228673,493.827,-860.046,0,0
229974,467.591,-866.081,0,0
231276,438.849,-868.914,0,0
232578,412.496,-867.264,0,0
233879,388.618,-864.353,0,0
235180.95,366.708,-860.749,0,0
236482.575,342.756,-857.722,0,0
237784.2,318.412,-850.799,0,0
239085.825,295.045,-839.09,0,0
240387.45,275.103,-825.029,0,0
241689.075,257.484,-808.086,0,0
242990.7,246.685,-788.764,0,0
244292.325,240.075,-776.01,0,0
245593.95,230.793,-762.178,0,0
246895.575,224.626,-747.675,0,0
248197.2,219.73,-734.082,0,0
249498.825,219.405,-720.714,0,0
250800,219.014,-713.43,0,0
252102,214.811,-707.294,0,0
253404,208.331,-698.561,0,0
254705,202.127,-685.648,0,0
256007,200.139,-669.65,0,0
257309,204.6,-654.182,0,0
258610,212.289,-642.01,0,0
259912,224.632,-632.792,0,0
261213,241.769,-630.411,0,0
262515,254.907,-643.16,0,0
263817,255.2,-658.156,0,0
265118,247.595,-670.176,0,0
266420,233.872,-677.986,0,0
267721.55,217.004,-676.282,0,0
269023.175,205.197,-668.389,0,0
270324.8,197.295,-658.574,0,0
271626.425,193.66,-648.638,0,0
272928.05,191.221,-641.1,0,0
274229.675,188.987,-631.864,0,0
275531.3,190.183,-621.716,0,0
276832.925,195.956,-613.192,0,0
278134.55,204.173,-609.974,0,0
279436.175,211.498,-612.23,0,0
280737.8,214.655,-618.296,0,0
282039.425,212.862,-624.666,0,0
283341,207.6,-629.172,0,0
284643,200.848,-630.631,0,0
285944,193.868,-629.535,0,0
287246,188.36,-626.204,0,0
288548,184.733,-622.676,0,0
289849,183.412,-619.603,0,0
291151,181.022,-619.845,0,0
292452,175.58,-619.326,0,0
293754,169.988,-614.954,0,0
295056,168.007,-609.504,0,0
296357,168.254,-606.608,0,0
297659,167.69,-606.218,0,0
298960.525,165.347,-606.501,0,0
300262.15,161.782,-606.876,0,0
301563.775,156.738,-606.577,0,0
302865.4,150.788,-604.724,0,0
304167.025,145.296,-601.451,0,0
305468.65,140.344,-597.086,0,0
306770.275,136.593,-592.165,0,0
308071.9,134.016,-587.067,0,0
309373.525,132.579,-582.74,0,0
310675.15,131.454,-579.81,0,0
311976.775,129.02,-577.964,0,0
313278.4,124.967,-575.351,0,0
314580,120.736,-570.431,0,0
315882,118.651,-564.25,0,0
317183,118.459,-559.038,0,0
318485,118.6,-555.071,0,0
319787,118.587,-551.736,0,0
321088,118.568,-548.47,0,0
322390,119.727,-545.498,0,0
323691,121.574,-544.806,0,0
324993,121.464,-546.232,0,0
326295,118.954,-547.708,0,0
327596,114.793,-548.036,0,0
328898,110.121,-546.865,0,0
330200,105.67,-544.579,0,0
331501.125,101.342,-542.072,0,0
332802.75,96.682,-538.852,0,0
334104.375,92.1868,-534.765,0,0
335406.0,88.0477,-529.784,0,0
336707.625,84.8265,-524.048,0,0
338009.25,82.3714,-518.081,0,0
339310.875,80.4272,-511.982,0,0
340612.5,79.4078,-505.163,0,0
341914.125,80.4182,-498.402,0,0
343215.75,83.0447,-493.419,0,0
344517.375,85.3764,-490.708,0,0
345819.0,86.4758,-489.046,0,0
347121,86.0121,-487.673,0,0
348422,84.5982,-485.02,0,0
349724,83.788,-480.947,0,0
351025,84.7539,-477.015,0,0
352327,86.3762,-474.838,0,0
353629,86.9029,-473.881,0,0
354930,85.9885,-472.743,0,0
356232,84.5758,-470.909,0,0
357534,82.9694,-468.183,0,0
358835,82.1152,-464.59,0,0
360137,82.2412,-461.545,0,0
361438,82.1162,-459.152,0,0
362740.1,81.414,-456.346,0,0
364041.725,81.7539,-452.803,0,0
365343.35,83.0104,-450.244,0,0
366644.975,84.211,-449.353,0,0
367946.6,83.3057,-449.235,0,0
369248.225,80.8517,-447.273,0,0
370549.85,79.9422,-443.078,0,0
371851.475,81.3835,-440.302,0,0
373153.1,81.7952,-439.8,0,0
374454.725,80.129,-438.584,0,0
375756.35,78.4451,-435.934,0,0
377057.975,77.6353,-432.396,0,0
378359.6,77.8958,-428.855,0,0
379661,79.0996,-426.219,0,0
380963,80.031,-424.935,0,0
382264,79.9976,-423.711,0,0
383566,79.6163,-422.735,0,0
384868,78.2711,-421.518,0,0
386169,76.6382,-419.437,0,0
387471,74.9419,-416.508,0,0
388773,73.6989,-412.694,0,0
390074,73.5247,-408.189,0,0
391376,74.8504,-403.744,0,0
392677,77.2719,-400.494,0,0
393979,79.6941,-398.56,0,0
395280.7,81.8104,-397.27,0,0
396582.325,83.6648,-396.724,0,0
397883.95,84.9616,-396.833,0,0
399185.575,85.5395,-397.338,0,0
400006.6,85.3325,-397.816,0,0