File: Accelerated corrosion test data/2025-10-20_06-00-03/sample_2.csv
Frequency (Hz),Impedance (ohms),Phase (Radians),Temperature (C),Humidity (%)
10000.0,223.485,-11536.9,0,0
11301.625,199.229,-10217.3,0,0
12603.25,179.293,-9172.91,0,0
13904.875,185.579,-8318.48,0,0
15206.5,162.02,-7623.31,0,0
16508.125,140.394,-7021.72,0,0
17809.75,130.021,-6508.37,0,0
19111.375,126.805,-6065.42,0,0
20413.0,116.412,-5677.9,0,0
21714.625,127.157,-5347.58,0,0
23016.25,111.189,-5048.03,0,0
24317.875,101.611,-4779.76,0,0
25619.5,96.1631,-4533.32,0,0
26921.1,93.6548,-4312.87,0,0
28222.7,88.8345,-4111.44,0,0
29524.4,93.3423,-3925.87,0,0
30826,87.0987,-3770.72,0,0
32127.6,81.3249,-3615.54,0,0
33429.2,79.1066,-3476.22,0,0
34730.9,74.9686,-3343.94,0,0
36032.5,72.3846,-3221.48,0,0
37334.1,70.2041,-3106.78,0,0
38635.7,68.3187,-3000.77,0,0
39937.4,66.314,-2901,0,0
41239,65.0099,-2807.33,0,0
42540.6,64.0592,-2719.85,0,0
43842.225,62.6274,-2637.05,0,0
45143.85,61.3235,-2558.66,0,0
46445.475,60.7108,-2485.86,0,0
47747.1,60.0736,-2415.69,0,0
49048.725,60.1235,-2351.64,0,0
50350.35,57.3529,-2288.73,0,0
51651.975,56.3466,-2229.09,0,0
52953.6,54.4398,-2171.19,0,0
54255.225,53.9121,-2115.94,0,0
55556.85,53.4317,-2063.41,0,0
56858.475,53.436,-2013.3,0,0
58160.1,53.7458,-1965.54,0,0
59461.7,54.2331,-1919.13,0,0
60763.3,55.8744,-1876.41,0,0
62065,58.7609,-1837.84,0,0
63366.6,55.2321,-1800.15,0,0
64668.2,52.5819,-1762.17,0,0
65969.8,50.5696,-1722.9,0,0
67271.5,50.8317,-1685.04,0,0
68573.1,53.1028,-1650.65,0,0
69874.7,55.5358,-1619.8,0,0
71176.3,52.7477,-1591.84,0,0
72478,47.622,-1561.31,0,0
73779.6,44.8054,-1527.86,0,0
75081.2,44.8819,-1495.32,0,0
76382.825,46.6294,-1464.7,0,0
77684.45,49.4031,-1436.22,0,0
78986.075,52.703,-1411.76,0,0
80287.7,51.7466,-1390.11,0,0
81589.325,48.8865,-1364.97,0,0
82890.95,47.6961,-1338.97,0,0
84192.575,48.4104,-1314.09,0,0
85494.2,48.8247,-1290.45,0,0
86795.825,49.815,-1267.99,0,0
88097.45,50.1739,-1246.39,0,0
89399.075,50.9055,-1225.08,0,0
90700.7,50.5423,-1204.31,0,0
92002.3,52.3281,-1182.84,0,0
93303.9,54.9344,-1164.2,0,0
94605.6,54.9675,-1147.65,0,0
95907.2,53.637,-1127.64,0,0
97208.8,56.953,-1110.29,0,0
98510.4,56.5911,-1096.16,0,0
99812.1,52.8243,-1080.79,0,0
101114,50.3125,-1063.67,0,0
102415,46.9246,-1043.58,0,0
103717,45.789,-1022.42,0,0
105019,48.9983,-1002.14,0,0
106320.175,53.4166,-984.475,0,0
107621.8,57.9016,-972.604,0,0
108923.425,56.5604,-960.982,0,0
110225.05,52.7149,-946.146,0,0
111526.675,50.9628,-928.158,0,0
112828.3,51.1481,-910.723,0,0
114129.925,52.3353,-893.325,0,0
115431.55,54.7045,-876.526,0,0
116733.175,57.3769,-860.42,0,0
118034.8,61.23,-845.206,0,0
119336.425,65.4262,-831.668,0,0
120638.05,69.1031,-820.56,0,0
121939.675,69.4378,-809.756,0,0
123241,69.2839,-796.872,0,0
124543,69.7593,-783.908,0,0
125845,69.6443,-770.068,0,0
127146,70.3477,-754.972,0,0
128448,72.7175,-739.87,0,0
129749,76.3355,-725.556,0,0
131051,81.0714,-712.924,0,0
132353,83.8112,-702.029,0,0
133654,85.4954,-690.568,0,0
134956,85.8486,-678.633,0,0
136258,86.5659,-664.466,0,0
137559,88.5222,-649.828,0,0
138860.775,90.284,-635.631,0,0
140162.4,91.8868,-619.191,0,0
141464.025,96.5386,-600.466,0,0
142765.65,104.684,-584.247,0,0
144067.275,112.07,-568.322,0,0
145368.9,120.715,-552.281,0,0
146670.525,130.242,-536.012,0,0
147972.15,142.664,-518.189,0,0
149273.775,161.198,-499.913,0,0
150575.4,187.359,-488.437,0,0
151877.025,214.713,-489.101,0,0
153178.65,233.761,-499.593,0,0
154480,242.581,-510.96,0,0
155782,247.551,-517.977,0,0
157084,248.406,-525.752,0,0
158385,244.772,-529.35,0,0
159687,239.838,-526.544,0,0
160988,239.984,-520.994,0,0
162290,248.501,-519.851,0,0
163592,243.931,-528.945,0,0
164893,231.111,-529.549,0,0
166195,216.74,-519.036,0,0
167497,206.619,-505.577,0,0
168798,199.066,-484.126,0,0
170100,198.127,-462.273,0,0
171401.375,200.299,-440.164,0,0
172703.0,207.265,-417.135,0,0
174004.625,216.632,-395.42,0,0
175306.25,230.678,-372.108,0,0
176607.875,250.09,-351.815,0,0
177909.5,275.49,-339.251,0,0
179211.125,297.861,-333.498,0,0
180512.75,309.494,-331.488,0,0
181814.375,315.527,-320.082,0,0
183116.0,327.502,-301.087,0,0
184417.625,348.723,-277.79,0,0
185719.25,377.273,-260.479,0,0
187021,407.558,-244.568,0,0
188322,446.361,-232.168,0,0
189624,481.512,-225.189,0,0
190926,524.222,-212.655,0,0
192227,580.009,-206.219,0,0
193529,648.12,-212.497,0,0
194831,717.357,-242.343,0,0
196132,777.812,-289.367,0,0
197434,831.088,-346.526,0,0
198735,874.027,-420.578,0,0
200037,897.525,-504.62,0,0
201339,900.079,-593.786,0,0
202640.35,876.57,-675.805,0,0
203941.975,838.6,-743.052,0,0
205243.6,799.217,-801.316,0,0
206545.225,742.786,-845.705,0,0
207846.85,685.452,-869.81,0,0
209148.475,645.307,-881.97,0,0
210450.1,604.789,-903.981,0,0
211751.725,552.323,-918.171,0,0
213053.35,502.921,-913.709,0,0
214354.975,462.269,-902.316,0,0
215656.6,428.223,-887.415,0,0
216958.225,401.808,-868.564,0,0
218259.85,383.163,-850.47,0,0
219561,369.446,-834.057,0,0
220863,358.662,-819.765,0,0
222165,352.857,-807.166,0,0
223466,347.759,-799.321,0,0
224768,342.565,-791.913,0,0
226070,338.753,-785.552,0,0
227371,337.58,-780.982,0,0
228673,338.76,-781.723,0,0
229974,334.989,-788.016,0,0
231276,326.609,-794.096,0,0
232578,315.485,-799.798,0,0
233879,301.192,-803.256,0,0
235180.95,286.114,-803.88,0,0
236482.575,270.935,-802.895,0,0
237784.2,254.683,-800.113,0,0
239085.825,239.721,-794.698,0,0
240387.45,224.705,-787.819,0,0
241689.075,211.182,-778.364,0,0
242990.7,201.275,-767.189,0,0
244292.325,194.758,-758.11,0,0
245593.95,189.104,-752.729,0,0
246895.575,179.378,-750.904,0,0
248197.2,164.692,-745.003,0,0
249498.825,150.082,-735.104,0,0
250800,136.394,-720.78,0,0
252102,126.854,-702.917,0,0
253404,122.298,-685.368,0,0
254705,119.769,-669.081,0,0
256007,119.211,-652.892,0,0
257309,121.275,-637.635,0,0
258610,125.267,-623.869,0,0
259912,131.062,-611.573,0,0
261213,138.448,-601.744,0,0
262515,146.224,-594.64,0,0
263817,153.362,-589.366,0,0
265118,160.448,-585.433,0,0
266420,166.894,-583.433,0,0
267721.55,172.998,-582.375,0,0
269023.175,177.844,-583.861,0,0
270324.8,179.098,-584.815,0,0
271626.425,180.232,-583.877,0,0
272928.05,181.738,-580.619,0,0
274229.675,187.854,-576.327,0,0
275531.3,198.966,-576.689,0,0
276832.925,209.764,-586.536,0,0
278134.55,211.813,-601.528,0,0
279436.175,206.576,-614.864,0,0
280737.8,196.88,-624.449,0,0
282039.425,186.002,-631.413,0,0
283341,170.794,-634.885,0,0
284643,157.885,-631.988,0,0
285944,144.923,-629.39,0,0
287246,129.863,-621.351,0,0
288548,118.663,-605.231,0,0
289849,118.187,-585.58,0,0
291151,126.638,-570.903,0,0
292452,141.039,-564.704,0,0
293754,151.378,-571.337,0,0
295056,150.524,-576.683,0,0
296357,153.487,-575.854,0,0
297659,158.757,-586.526,0,0
298960.525,150.589,-597.327,0,0
300262.15,139.228,-600.715,0,0
301563.775,130.1,-598.827,0,0
302865.4,124.424,-596.531,0,0
304167.025,118.954,-596.265,0,0
305468.65,111.699,-596.15,0,0
306770.275,103.069,-593.884,0,0
308071.9,95.269,-589.872,0,0
309373.525,87.9858,-584.866,0,0
310675.15,81.7181,-579.073,0,0
311976.775,76.295,-572.78,0,0
313278.4,71.6552,-566.253,0,0
314580,67.7795,-559.541,0,0
315882,64.564,-552.95,0,0
317183,61.7743,-546.304,0,0
318485,59.5769,-539.625,0,0
319787,57.9572,-533.353,0,0
321088,56.3648,-526.877,0,0
322390,55.236,-520.412,0,0
323691,54.6897,-513.744,0,0
324993,55.0097,-506.615,0,0
326295,57.1408,-499.915,0,0
327596,60.5553,-495.223,0,0
328898,63.0985,-492.189,0,0
330200,65.6427,-489.871,0,0
331501.125,67.6278,-488.933,0,0
332802.75,68.0216,-489.327,0,0
334104.375,66.0743,-489.082,0,0
335406.0,63.5636,-487.113,0,0
336707.625,61.2816,-484.381,0,0
338009.25,59.2698,-480.953,0,0
339310.875,57.6124,-477.372,0,0
340612.5,56.1786,-473.524,0,0
341914.125,54.8953,-469.424,0,0
343215.75,53.8356,-464.978,0,0
344517.375,53.379,-460.189,0,0
345819.0,53.5819,-455.531,0,0
347121,54.2985,-450.992,0,0
348422,55.5229,-446.754,0,0
349724,57.1325,-442.953,0,0
351025,59.0388,-439.833,0,0
352327,60.7244,-437.5,0,0
353629,61.7841,-435.149,0,0
354930,62.9925,-432.564,0,0
356232,64.4785,-430.022,0,0
357534,66.4275,-427.744,0,0
358835,68.6527,-426.265,0,0
360137,70.5643,-425.684,0,0
361438,71.9033,-425.605,0,0
362740.1,72.3351,-425.677,0,0
364041.725,72.2315,-425.463,0,0
365343.35,71.8395,-424.775,0,0
366644.975,71.4727,-423.749,0,0
367946.6,71.5284,-422.417,0,0
369248.225,72.3235,-421.616,0,0
370549.85,72.4155,-422.047,0,0
371851.475,71.3708,-421.974,0,0
373153.1,70.6668,-421.606,0,0
374454.725,69.5324,-421.54,0,0
375756.35,67.854,-421.233,0,0
377057.975,66.0756,-420.524,0,0
378359.6,64.1679,-419.955,0,0
379661,61.0486,-419.115,0,0
380963,58.09,-415.736,0,0
382264,57.9011,-412.922,0,0
383566,56.9163,-412.031,0,0
384868,54.4594,-410.667,0,0
386169,51.8356,-408.073,0,0
387471,49.8326,-404.876,0,0
388773,48.2421,-401.417,0,0
390074,47.4911,-397.698,0,0
391376,47.6012,-394.845,0,0
392677,46.8679,-393.122,0,0
393979,44.925,-390.805,0,0
395280.7,42.9475,-387.226,0,0
396582.325,41.8666,-382.824,0,0
397883.95,41.6398,-378.431,0,0
399185.575,42.1041,-374.336,0,0
400006.6,42.5823,-371.991,0,0