File: Accelerated corrosion test data/2025-10-20_06-00-03/sample_4.csv
Frequency (Hz),Impedance (ohms),Phase (Radians),Temperature (C),Humidity (%)
10000.0,261.988,-11980.3,0,0
11301.625,232.841,-10613.4,0,0
12603.25,212.677,-9521.62,0,0
13904.875,192.901,-8631.22,0,0
15206.5,180.392,-7900.2,0,0
16508.125,196.33,-7286.79,0,0
17809.75,155.327,-6769.54,0,0
19111.375,144.549,-6308.36,0,0
20413.0,139.738,-5903.93,0,0
21714.625,146.459,-5557.38,0,0
23016.25,124.25,-5253.68,0,0
24317.875,115.58,-4966.82,0,0
25619.5,112.114,-4711.14,0,0
26921.1,105.735,-4479.4,0,0
28222.7,120.647,-4276.54,0,0
29524.4,113.393,-4096.89,0,0
30826,98.77,-3920.83,0,0
32127.6,100.088,-3759.18,0,0
33429.2,89.463,-3616.68,0,0
34730.9,84.426,-3477.22,0,0
36032.5,81.2347,-3348.56,0,0
37334.1,78.9093,-3228.68,0,0
38635.7,76.6875,-3115.48,0,0
39937.4,76.9512,-3008.91,0,0
41239,79.9938,-2913.41,0,0
42540.6,78.3971,-2825.57,0,0
43842.225,73.1722,-2740.7,0,0
45143.85,70.9684,-2659.3,0,0
46445.475,70.2312,-2580.92,0,0
47747.1,69.6867,-2510.96,0,0
49048.725,65.583,-2441.09,0,0
50350.35,64.0575,-2373.1,0,0
51651.975,63.4771,-2308.08,0,0
52953.6,65.294,-2244.52,0,0
54255.225,73.3311,-2187.01,0,0
55556.85,71.0508,-2144.24,0,0
56858.475,65.1909,-2089.35,0,0
58160.1,65.9484,-2036.67,0,0
59461.7,69.8224,-1986.16,0,0
60763.3,80.1284,-1947.06,0,0
62065,69.376,-1914.06,0,0
63366.6,63.6176,-1867.81,0,0
64668.2,63.7586,-1824.11,0,0
65969.8,65.7997,-1782.81,0,0
67271.5,69.1048,-1746.38,0,0
68573.1,74.0074,-1716.67,0,0
69874.7,66.456,-1687.59,0,0
71176.3,64.4255,-1652.91,0,0
72478,58.6208,-1620.75,0,0
73779.6,57.1665,-1584.39,0,0
75081.2,59.1387,-1550.81,0,0
76382.825,61.6781,-1521.57,0,0
77684.45,65.1543,-1493.26,0,0
78986.075,64.1636,-1471.08,0,0
80287.7,61.1397,-1444.15,0,0
81589.325,60.893,-1418.06,0,0
82890.95,59.6659,-1393.28,0,0
84192.575,58.1919,-1368.42,0,0
85494.2,57.0327,-1344.15,0,0
86795.825,56.1462,-1320.1,0,0
88097.45,54.4716,-1297.02,0,0
89399.075,53.3266,-1272.51,0,0
90700.7,53.264,-1249.29,0,0
92002.3,53.6284,-1226.08,0,0
93303.9,55.1892,-1204.91,0,0
94605.6,53.8049,-1185.18,0,0
95907.2,52.8597,-1162.77,0,0
97208.8,53.2885,-1140.92,0,0
98510.4,54.2626,-1119.31,0,0
99812.1,56.4827,-1098.49,0,0
101114,59.9279,-1079.49,0,0
102415,59.3766,-1064.1,0,0
103717,57.0412,-1041.6,0,0
105019,60.01,-1018.05,0,0
106320.175,66.0336,-997.018,0,0
107621.8,72.3796,-978.492,0,0
108923.425,80.2836,-960.703,0,0
110225.05,88.7909,-946.842,0,0
111526.675,95.3023,-935.038,0,0
112828.3,101.471,-924.103,0,0
114129.925,106.122,-914.908,0,0
115431.55,109.23,-906.775,0,0
116733.175,110.048,-898.328,0,0
118034.8,109.337,-888.211,0,0
119336.425,110.881,-875.555,0,0
120638.05,116.363,-871.533,0,0
121939.675,108.817,-866.134,0,0
123241,103.492,-853.974,0,0
124543,100.576,-840.894,0,0
125845,99.7855,-828.81,0,0
127146,97.3448,-819.292,0,0
128448,92.2504,-809.862,0,0
129749,83.5862,-796.463,0,0
131051,77.3069,-778.823,0,0
132353,73.686,-759.815,0,0
133654,72.0312,-740.616,0,0
134956,71.9957,-721.496,0,0
136258,73.321,-702.729,0,0
137559,75.2851,-684.783,0,0
138860.775,77.1062,-666.154,0,0
140162.4,80.4045,-646.88,0,0
141464.025,85.5358,-627.628,0,0
142765.65,91.4675,-609.463,0,0
144067.275,97.8743,-591.583,0,0
145368.9,104.753,-573.36,0,0
146670.525,113.138,-554.523,0,0
147972.15,123.156,-535.876,0,0
149273.775,134.655,-517.676,0,0
150575.4,148.276,-498.403,0,0
151877.025,166.16,-480.473,0,0
153178.65,188.465,-466.508,0,0
154480,210.98,-459.783,0,0
155782,229.762,-455.466,0,0
157084,246.268,-452.982,0,0
158385,261.388,-449.271,0,0
159687,279.789,-448.932,0,0
160988,295.744,-451.747,0,0
162290,305.948,-457.756,0,0
163592,308.833,-460.006,0,0
164893,314.093,-451.952,0,0
166195,328.515,-439.544,0,0
167497,356.327,-434.896,0,0
168798,385.472,-444.786,0,0
170100,411.604,-470.723,0,0
171401.375,416.921,-510.273,0,0
172703.0,398.013,-544.699,0,0
174004.625,365.055,-558.732,0,0
175306.25,333.358,-554.681,0,0
176607.875,309.075,-534.991,0,0
177909.5,298.018,-511.038,0,0
179211.125,295.018,-487.405,0,0
180512.75,298.45,-467.427,0,0
181814.375,302.677,-450.68,0,0
183116.0,305.707,-434.863,0,0
184417.625,308.988,-415.709,0,0
185719.25,315.319,-394.958,0,0
187021,322.996,-372.327,0,0
188322,334.486,-345.99,0,0
189624,351.32,-317.197,0,0
190926,375.51,-286.502,0,0
192227,409.202,-255.668,0,0
193529,452.652,-228.554,0,0
194831,504.603,-207.084,0,0
196132,565.47,-190.548,0,0
197434,638.52,-182.389,0,0
198735,726.419,-187.741,0,0
200037,828.331,-225.735,0,0
201339,920.579,-302.662,0,0
202640.35,982.506,-407.718,0,0
203941.975,1014.31,-526.631,0,0
205243.6,1009.11,-645.721,0,0
206545.225,974.66,-756.18,0,0
207846.85,909.671,-850.219,0,0
209148.475,825.427,-912.367,0,0
210450.1,744.243,-939.316,0,0
211751.725,676.178,-946.671,0,0
213053.35,618.924,-944.136,0,0
214354.975,577.438,-929.776,0,0
215656.6,551.801,-924.643,0,0
216958.225,523.133,-925.087,0,0
218259.85,494.658,-923.746,0,0
219561,467.609,-921.418,0,0
220863,439.736,-916.659,0,0
222165,416.099,-908.287,0,0
223466,397.134,-899.54,0,0
224768,380.826,-895.927,0,0
226070,361.329,-893.887,0,0
227371,338.977,-891.018,0,0
228673,313.985,-884.197,0,0
229974,291.037,-871.678,0,0
231276,270.926,-856.693,0,0
232578,255.368,-840.786,0,0
233879,241.236,-824.146,0,0
235180.95,231.083,-808.036,0,0
236482.575,221.648,-793.051,0,0
237784.2,213.872,-776.895,0,0
239085.825,209.084,-761.554,0,0
240387.45,206.102,-747.707,0,0
241689.075,204.66,-735.887,0,0
242990.7,203.333,-726.546,0,0
244292.325,200.466,-719.28,0,0
245593.95,195.08,-711.229,0,0
246895.575,189.395,-701.064,0,0
248197.2,185.299,-689.272,0,0
249498.825,183.547,-677.06,0,0
250800,183.417,-667.101,0,0
252102,181.062,-658.127,0,0
253404,178.978,-646.942,0,0
254705,176.754,-636.025,0,0
256007,174.889,-620.983,0,0
257309,176.987,-603.407,0,0
258610,184.718,-585.203,0,0
259912,197.974,-569.917,0,0
261213,215.185,-557.989,0,0
262515,236.932,-550.841,0,0
263817,259.169,-554.604,0,0
265118,275.999,-561.567,0,0
266420,294.031,-571.36,0,0
267721.55,310.247,-591.824,0,0
269023.175,312.719,-618.515,0,0
270324.8,304.268,-639.286,0,0
271626.425,294.282,-653.602,0,0
272928.05,281.39,-664.803,0,0
274229.675,269.856,-674.041,0,0
275531.3,253.047,-682.749,0,0
276832.925,231.582,-685.294,0,0
278134.55,211.39,-676.677,0,0
279436.175,201.455,-663.022,0,0
280737.8,197.042,-654.463,0,0
282039.425,193.519,-645.172,0,0
283341,194.9,-639.683,0,0
284643,194.086,-639.886,0,0
285944,187.174,-640.725,0,0
287246,177.845,-635.595,0,0
288548,170.896,-625.499,0,0
289849,169.917,-613.353,0,0
291151,175.141,-602.345,0,0
292452,185.666,-597.652,0,0
293754,195.84,-601.307,0,0
295056,200.123,-612.224,0,0
296357,195.274,-622.94,0,0
297659,186.007,-628.433,0,0
298960.525,176.89,-630.356,0,0
300262.15,167.628,-630.291,0,0
301563.775,158.896,-628.065,0,0
302865.4,151.316,-624.93,0,0
304167.025,143.693,-620.86,0,0
305468.65,137.281,-615.565,0,0
306770.275,131.98,-609.568,0,0
308071.9,128.575,-603.596,0,0
309373.525,125.697,-599.114,0,0
310675.15,122.111,-594.514,0,0
311976.775,119.13,-589.454,0,0
313278.4,116.914,-584.159,0,0
314580,115.629,-579.741,0,0
315882,114.17,-575.961,0,0
317183,113.088,-572.361,0,0
318485,112.313,-569.522,0,0
319787,111.287,-568.304,0,0
321088,108.454,-568.178,0,0
322390,103.285,-567.297,0,0
323691,96.7252,-563.943,0,0
324993,91.4352,-558.439,0,0
326295,87.339,-552.222,0,0
327596,84.2215,-545.913,0,0
328898,81.4979,-539.165,0,0
330200,80.3682,-531.761,0,0
331501.125,81.2756,-525.142,0,0
332802.75,82.8524,-521.145,0,0
334104.375,82.5873,-518.483,0,0
335406.0,81.0506,-515.205,0,0
336707.625,79.1034,-511.117,0,0
338009.25,77.2305,-506.095,0,0
339310.875,75.8644,-499.896,0,0
340612.5,76.2765,-492.952,0,0
341914.125,78.64,-486.672,0,0
343215.75,82.4312,-482.149,0,0
344517.375,86.1322,-479.832,0,0
345819.0,88.8219,-479.074,0,0
347121,89.8837,-479.197,0,0
348422,89.4865,-478.934,0,0
349724,88.5484,-478.256,0,0
351025,86.4251,-477.001,0,0
352327,84.4388,-474.153,0,0
353629,83.452,-471.055,0,0
354930,82.448,-468.048,0,0
356232,81.7563,-464.758,0,0
357534,81.5287,-461.709,0,0
358835,81.1003,-459.034,0,0
360137,80.0161,-456.24,0,0
361438,79.161,-452.343,0,0
362740.1,79.1005,-448.683,0,0
364041.725,79.016,-445.084,0,0
365343.35,78.8018,-441.186,0,0
366644.975,79.1225,-436.635,0,0
367946.6,80.2366,-431.56,0,0
369248.225,82.8722,-426.609,0,0
370549.85,86.9725,-422.082,0,0
371851.475,92.9257,-419.469,0,0
373153.1,98.8125,-420.208,0,0
374454.725,102.374,-423.049,0,0
375756.35,103.443,-425.947,0,0
377057.975,102.901,-427.742,0,0
378359.6,102.676,-428.39,0,0
379661,102.444,-429.589,0,0
380963,101.116,-430.34,0,0
382264,100.519,-429.974,0,0
383566,100.666,-430.934,0,0
384868,99.7188,-433.211,0,0
386169,96.3483,-435.725,0,0
387471,90.9336,-435.637,0,0
388773,86.735,-432.769,0,0
390074,85.2587,-429.557,0,0
391376,84.4622,-428.529,0,0
392677,82.2198,-428.255,0,0
393979,78.7385,-427.645,0,0
395280.7,74.6143,-425.75,0,0
396582.325,70.4168,-422.617,0,0
397883.95,66.7404,-418.303,0,0
399185.575,63.9458,-413.225,0,0
400006.6,62.8014,-409.592,0,0