File: Accelerated corrosion test data/2025-10-20_06-00-03/sample_7.csv
Frequency (Hz),Impedance (ohms),Phase (Radians),Temperature (C),Humidity (%)
10000.0,274.167,-12155.4,0,0
11301.625,246.29,-10751.9,0,0
12603.25,263.365,-9703.53,0,0
13904.875,207.618,-8800.87,0,0
15206.5,197.996,-8054.13,0,0
16508.125,170.746,-7411.97,0,0
17809.75,165.752,-6853.22,0,0
19111.375,183.909,-6414.17,0,0
20413.0,173.699,-6009.38,0,0
21714.625,157.389,-5672.42,0,0
23016.25,129.335,-5346.05,0,0
24317.875,121.579,-5051.39,0,0
25619.5,117.637,-4785.35,0,0
26921.1,119.669,-4539.44,0,0
28222.7,178.644,-4309.61,0,0
29524.4,141.439,-4204.07,0,0
30826,131.256,-4009.68,0,0
32127.6,118.302,-3861.26,0,0
33429.2,101.452,-3710.7,0,0
34730.9,91.4122,-3565.03,0,0
36032.5,87.8366,-3430.07,0,0
37334.1,85.306,-3305.72,0,0
38635.7,85.9815,-3187.67,0,0
39937.4,100.482,-3087.07,0,0
41239,87.1508,-3001.51,0,0
42540.6,78.9337,-2904.69,0,0
43842.225,78.0973,-2814.76,0,0
45143.85,79.9425,-2737.26,0,0
46445.475,77.2249,-2664.01,0,0
47747.1,69.7534,-2587.17,0,0
49048.725,67.3566,-2516.33,0,0
50350.35,65.5408,-2448.75,0,0
51651.975,63.9132,-2384.77,0,0
52953.6,63.0946,-2324.03,0,0
54255.225,61.878,-2267.37,0,0
55556.85,60.338,-2212.17,0,0
56858.475,59.5828,-2159.37,0,0
58160.1,58.5798,-2108.91,0,0
59461.7,58.7621,-2061.31,0,0
60763.3,58.3042,-2017.06,0,0
62065,56.2699,-1973.41,0,0
63366.6,55.0351,-1930.42,0,0
64668.2,54.3497,-1889.54,0,0
65969.8,54.3223,-1850.87,0,0
67271.5,52.5826,-1813.97,0,0
68573.1,51.5236,-1777.1,0,0
69874.7,50.8152,-1741.68,0,0
71176.3,50.6276,-1707.79,0,0
72478,49.716,-1675.31,0,0
73779.6,48.755,-1643.4,0,0
75081.2,48.255,-1612.41,0,0
76382.825,47.664,-1582.61,0,0
77684.45,47.4145,-1553.49,0,0
78986.075,47.1203,-1525.47,0,0
80287.7,46.9296,-1498.36,0,0
81589.325,46.5737,-1472.03,0,0
82890.95,46.3211,-1446.14,0,0
84192.575,46.288,-1420.97,0,0
85494.2,46.5393,-1396.78,0,0
86795.825,46.5577,-1373.28,0,0
88097.45,46.6826,-1350.6,0,0
89399.075,46.011,-1328.31,0,0
90700.7,46.0817,-1305.85,0,0
92002.3,46.3045,-1284.07,0,0
93303.9,46.5924,-1262.13,0,0
94605.6,50.4522,-1242.02,0,0
95907.2,49.1751,-1225.4,0,0
97208.8,48.313,-1205.05,0,0
98510.4,49.2738,-1185.8,0,0
99812.1,48.9858,-1167.33,0,0
101114,50.0698,-1147.84,0,0
102415,52.01,-1129.63,0,0
103717,54.7616,-1112.7,0,0
105019,55.8309,-1097.74,0,0
106320.175,55.0696,-1081.97,0,0
107621.8,55.6971,-1065.1,0,0
108923.425,56.8097,-1048.54,0,0
110225.05,57.4313,-1031.73,0,0
111526.675,60.4201,-1014.4,0,0
112828.3,65.0556,-997.373,0,0
114129.925,70.6664,-983.433,0,0
115431.55,77.3626,-970.495,0,0
116733.175,86.1526,-961.047,0,0
118034.8,91.7415,-957.28,0,0
119336.425,94.6876,-955.581,0,0
120638.05,88.0927,-956.854,0,0
121939.675,75.8321,-947.545,0,0
123241,67.9936,-934.706,0,0
124543,63.0293,-919.763,0,0
125845,58.5666,-906.241,0,0
127146,54.7534,-891.338,0,0
128448,52.7939,-875.823,0,0
129749,51.1185,-861.298,0,0
131051,50.0334,-846.92,0,0
132353,48.6897,-831.513,0,0
133654,49.1242,-815.64,0,0
134956,52.0708,-800.801,0,0
136258,56.2958,-788.773,0,0
137559,56.1251,-780.729,0,0
138860.775,53.5297,-768.047,0,0
140162.4,53.2159,-753.621,0,0
141464.025,53.3784,-740.124,0,0
142765.65,54.3744,-725.481,0,0
144067.275,57.1818,-711.444,0,0
145368.9,59.6336,-699.815,0,0
146670.525,60.403,-686.873,0,0
147972.15,61.7965,-674.258,0,0
149273.775,62.1256,-661.521,0,0
150575.4,61.7088,-646.389,0,0
151877.025,62.7993,-628.967,0,0
153178.65,66.1269,-610.632,0,0
154480,71.3515,-592.12,0,0
155782,79.038,-572.989,0,0
157084,89.5829,-554.959,0,0
158385,103.307,-539.649,0,0
159687,114.893,-530.301,0,0
160988,118.78,-517.734,0,0
162290,124.775,-495.155,0,0
163592,139.794,-470.153,0,0
164893,163.071,-447.66,0,0
166195,188.164,-423.651,0,0
167497,230.884,-398.743,0,0
168798,291.251,-390.365,0,0
170100,354.921,-410.312,0,0
171401.375,411.129,-456.143,0,0
172703.0,442.009,-525.984,0,0
174004.625,428.921,-606.118,0,0
175306.25,373.028,-644.65,0,0
176607.875,337.728,-637.617,0,0
177909.5,334.457,-632.906,0,0
179211.125,345.666,-660.686,0,0
180512.75,311.842,-691.677,0,0
181814.375,274.672,-705.831,0,0
183116.0,229.645,-704.834,0,0
184417.625,194.944,-682.754,0,0
185719.25,173.446,-659.304,0,0
187021,155.536,-632.679,0,0
188322,149.415,-605.868,0,0
189624,143.417,-587.338,0,0
190926,136.241,-564.908,0,0
192227,134.338,-539.52,0,0
193529,135.627,-514.229,0,0
194831,141.757,-489.598,0,0
196132,152.106,-467.662,0,0
197434,164.387,-449.296,0,0
198735,174.5,-434.089,0,0
200037,182.699,-416.246,0,0
201339,194.576,-394.36,0,0
202640.35,212.342,-369.717,0,0
203941.975,237.607,-348.33,0,0
205243.6,268.089,-329.606,0,0
206545.225,308.687,-318.444,0,0
207846.85,343.629,-320.074,0,0
209148.475,377.43,-313.474,0,0
210450.1,433.724,-315.045,0,0
211751.725,486.599,-352.248,0,0
213053.35,514.943,-397.654,0,0
214354.975,533.965,-439.053,0,0
215656.6,542.747,-487.977,0,0
216958.225,543.825,-535.267,0,0
218259.85,523.719,-585.318,0,0
219561,484.699,-622.55,0,0
220863,441.359,-625.796,0,0
222165,417.697,-616.36,0,0
223466,408.743,-607.41,0,0
224768,403.689,-603.739,0,0
226070,402.01,-596.739,0,0
227371,411.367,-596.85,0,0
228673,421.349,-605.852,0,0
229974,427.39,-624.587,0,0
231276,428.162,-649.102,0,0
232578,419.397,-674.164,0,0
233879,400.442,-706.516,0,0
235180.95,357.807,-724.872,0,0
236482.575,320.29,-717.504,0,0
237784.2,295.878,-708.051,0,0
239085.825,272.314,-690.4,0,0
240387.45,267.425,-671.976,0,0
241689.075,260.086,-669.848,0,0
242990.7,242.146,-660.915,0,0
244292.325,233.539,-640.903,0,0
245593.95,237.647,-627.173,0,0
246895.575,235.04,-623.376,0,0
248197.2,227.996,-614.266,0,0
249498.825,224.626,-600.889,0,0
250800,226.163,-586.046,0,0
252102,233.895,-572.343,0,0
253404,248.419,-564.469,0,0
254705,262.924,-568.191,0,0
256007,269.112,-578.063,0,0
257309,267.132,-586.597,0,0
258610,261.974,-588.974,0,0
259912,260.341,-590.6,0,0
261213,255.434,-590.708,0,0
262515,252.883,-586.658,0,0
263817,258.072,-583.664,0,0
265118,261.665,-589.769,0,0
266420,260.572,-594.187,0,0
267721.55,259.821,-600.277,0,0
269023.175,253.484,-606.866,0,0
270324.8,247.221,-606.445,0,0
271626.425,249.485,-604.694,0,0
272928.05,258.653,-616.964,0,0
274229.675,249.623,-644.54,0,0
275531.3,220.377,-661.968,0,0
276832.925,183.963,-659.868,0,0
278134.55,155.748,-641.284,0,0
279436.175,141.857,-617.321,0,0
280737.8,137.386,-596.425,0,0
282039.425,136.809,-582.191,0,0
283341,133.219,-568.073,0,0
284643,134.14,-550.635,0,0
285944,141.648,-536.558,0,0
287246,150.26,-529.424,0,0
288548,154.293,-526.706,0,0
289849,154.512,-520.548,0,0
291151,157.136,-510.961,0,0
292452,163.234,-502.668,0,0
293754,170.675,-495.173,0,0
295056,179.378,-489.114,0,0
296357,190.355,-483.629,0,0
297659,203.983,-480.687,0,0
298960.525,219.465,-481.654,0,0
300262.15,236.385,-486.401,0,0
301563.775,255.333,-497.678,0,0
302865.4,273.384,-521.908,0,0
304167.025,273.729,-557.083,0,0
305468.65,258.483,-583.532,0,0
306770.275,237.972,-602.143,0,0
308071.9,214.298,-611.725,0,0
309373.525,191.017,-613.586,0,0
310675.15,171.785,-608.636,0,0
311976.775,157.386,-602.119,0,0
313278.4,145.283,-595.473,0,0
314580,133.953,-587.391,0,0
315882,125.591,-577.295,0,0
317183,120.777,-567.71,0,0
318485,117.469,-559.841,0,0
319787,115.117,-552.567,0,0
321088,113.829,-546.898,0,0
322390,112.158,-542.17,0,0
323691,110.582,-537.835,0,0
324993,108.955,-534,0,0
326295,107.727,-530.1,0,0
327596,107.052,-527.681,0,0
328898,104.969,-526.411,0,0
330200,102.051,-524.808,0,0
331501.125,98.4502,-523.323,0,0
332802.75,93.5476,-521.566,0,0
334104.375,87.8956,-518.245,0,0
335406.0,82.6086,-513.603,0,0
336707.625,77.6804,-508.399,0,0
338009.25,73.3774,-502.035,0,0
339310.875,70.208,-495.411,0,0
340612.5,67.6022,-488.732,0,0
341914.125,65.5662,-481.752,0,0
343215.75,64.64,-474.677,0,0
344517.375,64.7866,-467.804,0,0
345819.0,65.9315,-462.24,0,0
347121,66.6474,-458.261,0,0
348422,65.8592,-454.647,0,0
349724,64.4204,-449.703,0,0
351025,63.4305,-443.964,0,0
352327,63.436,-437.305,0,0
353629,65.1533,-431.098,0,0
354930,67.7421,-426.377,0,0
356232,70.1482,-423.168,0,0
357534,70.8597,-420.989,0,0
358835,69.8173,-417.814,0,0
360137,68.9786,-412.637,0,0
361438,69.6297,-406.65,0,0
362740.1,71.5962,-400.747,0,0
364041.725,74.5636,-395.576,0,0
365343.35,78.2177,-391.325,0,0
366644.975,81.9078,-388.499,0,0
367946.6,84.8657,-386.046,0,0
369248.225,88.0167,-383.98,0,0
370549.85,90.7959,-383.084,0,0
371851.475,91.688,-382.541,0,0
373153.1,91.7865,-380.327,0,0
374454.725,92.8926,-377.132,0,0
375756.35,94.8589,-374.417,0,0
377057.975,96.5254,-372.395,0,0
378359.6,97.4556,-369.941,0,0
379661,99.0508,-366.656,0,0
380963,101.275,-363.845,0,0
382264,103.589,-361.09,0,0
383566,106.223,-358.665,0,0
384868,108.662,-356.332,0,0
386169,111.079,-354.077,0,0
387471,113.585,-351.505,0,0
388773,116.076,-348.355,0,0
390074,120.422,-344.586,0,0
391376,125.771,-342.456,0,0
392677,130.985,-341.061,0,0
393979,136.038,-340.263,0,0
395280.7,140.961,-338.81,0,0
396582.325,147.648,-336.886,0,0
397883.95,157.214,-335.923,0,0
399185.575,169.733,-338.677,0,0
400006.6,178.245,-343.896,0,0