File: Accelerated corrosion test data/2025-10-20_06-00-03/sample_8.csv
Frequency (Hz),Impedance (ohms),Phase (Radians),Temperature (C),Humidity (%)
10000.0,303.941,-11049.6,0,0
11301.625,269.788,-9792.13,0,0
12603.25,248.83,-8793.19,0,0
13904.875,221.292,-7986.27,0,0
15206.5,201.189,-7307.6,0,0
16508.125,185.622,-6737.12,0,0
17809.75,172.557,-6246.86,0,0
19111.375,164.811,-5821.13,0,0
20413.0,158.664,-5457.31,0,0
21714.625,147.247,-5135.33,0,0
23016.25,141.947,-4850.21,0,0
24317.875,130.198,-4591.42,0,0
25619.5,123.665,-4356.36,0,0
26921.1,118.651,-4144.31,0,0
28222.7,116.164,-3953.16,0,0
29524.4,112.42,-3779.41,0,0
30826,108.309,-3620.57,0,0
32127.6,104.528,-3471.71,0,0
33429.2,104.529,-3333.61,0,0
34730.9,105.797,-3208.33,0,0
36032.5,109.164,-3097.13,0,0
37334.1,105.349,-2997.3,0,0
38635.7,94.8389,-2899.74,0,0
39937.4,87.4209,-2802.09,0,0
41239,84.6804,-2711.18,0,0
42540.6,81.5498,-2625.63,0,0
43842.225,80.7346,-2547.79,0,0
45143.85,76.6011,-2472.66,0,0
46445.475,73.6687,-2400.94,0,0
47747.1,71.6993,-2333.24,0,0
49048.725,69.6687,-2269.16,0,0
50350.35,67.7936,-2207.78,0,0
51651.975,66.718,-2149.22,0,0
52953.6,66.3595,-2094.03,0,0
54255.225,65.4493,-2043.6,0,0
55556.85,62.386,-1994.07,0,0
56858.475,60.3969,-1944.93,0,0
58160.1,59.4583,-1898.08,0,0
59461.7,58.5987,-1853.99,0,0
60763.3,57.4481,-1810.83,0,0
62065,56.8578,-1769.86,0,0
63366.6,57.3769,-1730.16,0,0
64668.2,57.3908,-1693.72,0,0
65969.8,56.6654,-1658.18,0,0
67271.5,54.9814,-1623.45,0,0
68573.1,53.8958,-1589.46,0,0
69874.7,53.6171,-1555.9,0,0
71176.3,53.6555,-1524.58,0,0
72478,53.4178,-1494.64,0,0
73779.6,52.6614,-1465.17,0,0
75081.2,51.8382,-1436.34,0,0
76382.825,51.5166,-1408.24,0,0
77684.45,51.0927,-1381.27,0,0
78986.075,50.4694,-1354.8,0,0
80287.7,49.8326,-1328.59,0,0
81589.325,49.9697,-1302.52,0,0
82890.95,50.7191,-1277.48,0,0
84192.575,52.19,-1253.91,0,0
85494.2,51.5086,-1231.84,0,0
86795.825,51.3577,-1208.05,0,0
88097.45,52.1047,-1185.21,0,0
89399.075,52.7739,-1162.47,0,0
90700.7,54.912,-1139.32,0,0
92002.3,58.9506,-1119.38,0,0
93303.9,60.5299,-1099.51,0,0
94605.6,63.0099,-1080.96,0,0
95907.2,64.5637,-1061.27,0,0
97208.8,67.8459,-1041.67,0,0
98510.4,72.8273,-1022.96,0,0
99812.1,77.9697,-1007.61,0,0
101114,83.4426,-993.31,0,0
102415,87.1621,-982.4,0,0
103717,87.5415,-971.1,0,0
105019,86.5804,-959.551,0,0
106320.175,85.5619,-945.053,0,0
107621.8,85.5415,-931.512,0,0
108923.425,85.378,-916.329,0,0
110225.05,87.4004,-902.939,0,0
111526.675,88.127,-890.372,0,0
112828.3,89.0893,-878.419,0,0
114129.925,88.9021,-866.523,0,0
115431.55,89.1126,-854.742,0,0
116733.175,87.5705,-842.765,0,0
118034.8,87.2922,-829.815,0,0
119336.425,87.325,-817.697,0,0
120638.05,86.3525,-805.628,0,0
121939.675,85.9682,-793.215,0,0
123241,85.3952,-781.117,0,0
124543,84.3937,-769.086,0,0
125845,82.8903,-756.361,0,0
127146,81.701,-742.748,0,0
128448,81.2696,-728.758,0,0
129749,81.0141,-715.011,0,0
131051,81.9764,-700.265,0,0
132353,83.134,-687.26,0,0
133654,83.6075,-674.044,0,0
134956,84.5288,-659.583,0,0
136258,87.0877,-646.398,0,0
137559,86.9671,-634.135,0,0
138860.775,86.532,-618.419,0,0
140162.4,88.5636,-602.518,0,0
141464.025,90.7965,-586.605,0,0
142765.65,93.3388,-569.66,0,0
144067.275,97.98,-551.938,0,0
145368.9,104.235,-533.518,0,0
146670.525,112.654,-515.586,0,0
147972.15,122.193,-500.098,0,0
149273.775,132.118,-480.353,0,0
150575.4,150.4,-460.049,0,0
151877.025,177.166,-449.774,0,0
153178.65,198.191,-451.5,0,0
154480,209.627,-455.173,0,0
155782,223.425,-454.893,0,0
157084,226.083,-468.15,0,0
158385,221.585,-460.373,0,0
159687,228.728,-457.234,0,0
160988,222.625,-456.821,0,0
162290,224.524,-439.673,0,0
163592,235.404,-434.134,0,0
164893,241.698,-431.094,0,0
166195,242.942,-434.993,0,0
167497,233.173,-431.143,0,0
168798,223.499,-418.577,0,0
170100,217.232,-397.49,0,0
171401.375,216.497,-373.365,0,0
172703.0,222.728,-345.705,0,0
174004.625,234.781,-320.646,0,0
175306.25,245.831,-299.476,0,0
176607.875,259.816,-270.961,0,0
177909.5,277.541,-243.03,0,0
179211.125,306.51,-209.439,0,0
180512.75,344.229,-182.936,0,0
181814.375,388.982,-160.244,0,0
183116.0,445.155,-151.798,0,0
184417.625,488.05,-154.056,0,0
185719.25,542.634,-151.995,0,0
187021,595.108,-169.533,0,0
188322,636.951,-192.054,0,0
189624,673.26,-215.926,0,0
190926,706.948,-232.181,0,0
192227,750.845,-256.341,0,0
193529,791.914,-267.789,0,0
194831,869.667,-296.297,0,0
196132,948.775,-367.219,0,0
197434,1004.16,-482.167,0,0
198735,1006.45,-622.21,0,0
200037,947.578,-747.373,0,0
201339,862.575,-816.7,0,0
202640.35,774.702,-868.849,0,0
203941.975,684.705,-871.054,0,0
205243.6,620.233,-857.866,0,0
206545.225,571.887,-825.581,0,0
207846.85,556.574,-793.593,0,0
209148.475,551.702,-779.378,0,0
210450.1,548.17,-766.56,0,0
211751.725,557.399,-762.735,0,0
213053.35,564.793,-775.414,0,0
214354.975,561.788,-794.158,0,0
215656.6,554.877,-812.933,0,0
216958.225,542.303,-833.577,0,0
218259.85,525.141,-854.794,0,0
219561,498.376,-875.576,0,0
220863,463.757,-887.288,0,0
222165,429.847,-885.578,0,0
223466,402.976,-875.67,0,0
224768,387.204,-864.842,0,0
226070,377.959,-860.602,0,0
227371,365.877,-863.71,0,0
228673,348.348,-865.03,0,0
229974,333.094,-867.229,0,0
231276,311.545,-871.265,0,0
232578,285.442,-870.19,0,0
233879,257.043,-863.437,0,0
235180.95,230.162,-847.291,0,0
236482.575,211.253,-825.967,0,0
237784.2,198.932,-804.56,0,0
239085.825,191.72,-783.598,0,0
240387.45,190.921,-766.825,0,0
241689.075,190.898,-757.122,0,0
242990.7,184.827,-749.714,0,0
244292.325,177.918,-738.859,0,0
245593.95,173.05,-726.878,0,0
246895.575,170.908,-714.442,0,0
248197.2,168.787,-704.543,0,0
249498.825,167.056,-693.784,0,0
250800,167.359,-683.142,0,0
252102,170.217,-674.079,0,0
253404,173.835,-669.188,0,0
254705,173.784,-667.761,0,0
256007,169.337,-664.985,0,0
257309,163.227,-658.072,0,0
258610,159.871,-646.833,0,0
259912,161.458,-635.479,0,0
261213,164.671,-627.306,0,0
262515,168.102,-620.667,0,0
263817,170.337,-613.351,0,0
265118,174.004,-604.451,0,0
266420,182.078,-593.7,0,0
267721.55,198.007,-585.485,0,0
269023.175,218.698,-587.453,0,0
270324.8,237.716,-598.196,0,0
271626.425,251.879,-620.839,0,0
272928.05,254.235,-649.367,0,0
274229.675,240.039,-679.874,0,0
275531.3,211.956,-696.442,0,0
276832.925,184.62,-698.61,0,0
278134.55,161.845,-692.829,0,0
279436.175,143.97,-681.992,0,0
280737.8,133.035,-668.201,0,0
282039.425,127.927,-656.669,0,0
283341,124.816,-648.14,0,0
284643,121.429,-640.176,0,0
285944,121.187,-632.044,0,0
287246,124.617,-627.454,0,0
288548,127.175,-631.013,0,0
289849,121.058,-637.332,0,0
291151,109.29,-638.011,0,0
292452,98.1615,-634.478,0,0
293754,87.9775,-628.045,0,0
295056,79.4661,-619.428,0,0
296357,73.5234,-609.875,0,0
297659,69.169,-600.834,0,0
298960.525,65.6466,-591.615,0,0
300262.15,63.4102,-582.15,0,0
301563.775,62.7256,-572.897,0,0
302865.4,63.7791,-564.465,0,0
304167.025,65.7189,-557.615,0,0
305468.65,67.9549,-552.094,0,0
306770.275,70.252,-548.096,0,0
308071.9,72.0029,-545.103,0,0
309373.525,72.9756,-543.655,0,0
310675.15,71.9127,-541.797,0,0
311976.775,70.9651,-539.179,0,0
313278.4,69.8578,-536.881,0,0
314580,68.1602,-534.266,0,0
315882,66.1654,-531.132,0,0
317183,64.6918,-527.397,0,0
318485,63.5678,-523.864,0,0
319787,62.6598,-520.117,0,0
321088,62.5185,-517.005,0,0
322390,61.9626,-514.638,0,0
323691,60.8709,-512.705,0,0
324993,58.7416,-510.616,0,0
326295,56.2816,-507.546,0,0
327596,54.3137,-504.056,0,0
328898,52.4643,-500.617,0,0
330200,50.446,-496.821,0,0
331501.125,48.6414,-492.724,0,0
332802.75,47.2247,-488.261,0,0
334104.375,46.3626,-483.482,0,0
335406.0,46.349,-478.91,0,0
336707.625,46.8806,-475.273,0,0
338009.25,46.9591,-472.431,0,0
339310.875,46.398,-469.82,0,0
340612.5,45.4289,-466.934,0,0
341914.125,44.1229,-463.649,0,0
343215.75,42.9446,-459.913,0,0
344517.375,42.09,-455.781,0,0
345819.0,41.6927,-451.444,0,0
347121,41.6792,-447.207,0,0
348422,42.023,-443.086,0,0
349724,42.5762,-439.105,0,0
351025,43.5638,-435.238,0,0
352327,44.8218,-431.881,0,0
353629,46.1622,-428.964,0,0
354930,47.3439,-426.403,0,0
356232,48.3666,-424.12,0,0
357534,49.1323,-422,0,0
358835,49.8289,-419.871,0,0
360137,50.4415,-417.735,0,0
361438,51.1033,-415.651,0,0
362740.1,51.6801,-413.823,0,0
364041.725,52.0973,-412.082,0,0
365343.35,52.4011,-410.325,0,0
366644.975,52.568,-408.568,0,0
367946.6,52.6386,-406.665,0,0
369248.225,52.7421,-404.463,0,0
370549.85,53.5964,-402.187,0,0
371851.475,54.6605,-400.907,0,0
373153.1,55.2382,-400.222,0,0
374454.725,55.0069,-399.699,0,0
375756.35,54.0658,-398.703,0,0
377057.975,53.2195,-397.062,0,0
378359.6,52.6271,-395.619,0,0
379661,51.2837,-393.785,0,0
380963,50.9368,-390.83,0,0
382264,51.5955,-389.247,0,0
383566,51.146,-388.469,0,0
384868,49.8236,-387.28,0,0
386169,48.1461,-385.418,0,0
387471,46.5781,-382.889,0,0
388773,45.3901,-379.793,0,0
390074,44.7964,-376.569,0,0
391376,44.5427,-373.585,0,0
392677,44.3972,-370.763,0,0
393979,44.1692,-367.928,0,0
395280.7,44.1367,-364.933,0,0
396582.325,44.3159,-361.947,0,0
397883.95,44.6701,-359.213,0,0
399185.575,45.0713,-356.577,0,0
400006.6,45.2527,-354.967,0,0