File: Accelerated corrosion test data/2025-10-18_06-00-03/sample_2.csv
Frequency (Hz),Impedance (ohms),Phase (Radians),Temperature (C),Humidity (%)
10000.0,227.343,-11507.9,0,0
11301.625,202.236,-10191.3,0,0
12603.25,182.398,-9150.07,0,0
13904.875,187.486,-8303.22,0,0
15206.5,160.87,-7603.49,0,0
16508.125,142.933,-7004.41,0,0
17809.75,132.811,-6493.6,0,0
19111.375,128.737,-6050.67,0,0
20413.0,118.226,-5664.58,0,0
21714.625,127.268,-5334.56,0,0
23016.25,112.821,-5036.08,0,0
24317.875,103.508,-4767.92,0,0
25619.5,97.633,-4522.69,0,0
26921.1,95.1143,-4303.03,0,0
28222.7,90.1863,-4102.18,0,0
29524.4,94.617,-3917.22,0,0
30826,88.2918,-3761.91,0,0
32127.6,82.3603,-3606.66,0,0
33429.2,80.3945,-3467.51,0,0
34730.9,76.1909,-3336.14,0,0
36032.5,73.3327,-3213.83,0,0
37334.1,71.4082,-3099.53,0,0
38635.7,69.0857,-2994.06,0,0
39937.4,67.1886,-2894.21,0,0
41239,66.1377,-2800.73,0,0
42540.6,64.7361,-2713.68,0,0
43842.225,63.5025,-2631.29,0,0
45143.85,62.3849,-2552.99,0,0
46445.475,61.6473,-2480.22,0,0
47747.1,60.8923,-2409.99,0,0
49048.725,60.778,-2346.23,0,0
50350.35,58.2321,-2283.28,0,0
51651.975,57.0994,-2223.99,0,0
52953.6,55.3493,-2166.08,0,0
54255.225,54.6148,-2111.05,0,0
55556.85,54.3151,-2058.7,0,0
56858.475,54.1946,-2008.59,0,0
58160.1,54.3651,-1961.08,0,0
59461.7,55.0042,-1914.83,0,0
60763.3,56.2922,-1872.06,0,0
62065,59.2364,-1833.45,0,0
63366.6,56.0706,-1795.85,0,0
64668.2,53.2401,-1758.22,0,0
65969.8,51.1591,-1718.9,0,0
67271.5,51.4505,-1680.96,0,0
68573.1,53.8805,-1646.72,0,0
69874.7,56.3894,-1615.98,0,0
71176.3,53.4738,-1588.03,0,0
72478,48.1783,-1557.52,0,0
73779.6,45.3342,-1524.44,0,0
75081.2,45.4644,-1491.84,0,0
76382.825,47.0907,-1461.28,0,0
77684.45,49.7778,-1432.85,0,0
78986.075,53.1667,-1408.25,0,0
80287.7,52.3472,-1386.75,0,0
81589.325,49.5212,-1361.62,0,0
82890.95,48.2057,-1335.75,0,0
84192.575,48.9556,-1310.9,0,0
85494.2,49.4613,-1287.16,0,0
86795.825,50.3754,-1264.82,0,0
88097.45,50.874,-1243.35,0,0
89399.075,51.3989,-1221.85,0,0
90700.7,51.1904,-1201.26,0,0
92002.3,52.744,-1180.07,0,0
93303.9,55.314,-1161.32,0,0
94605.6,55.4294,-1144.89,0,0
95907.2,54.1557,-1124.6,0,0
97208.8,57.6909,-1107.24,0,0
98510.4,57.2828,-1093.15,0,0
99812.1,53.8108,-1078.21,0,0
101114,50.977,-1061.6,0,0
102415,47.136,-1041.26,0,0
103717,46.0539,-1019.94,0,0
105019,49.2244,-999.485,0,0
106320.175,53.9778,-982.118,0,0
107621.8,58.1562,-969.988,0,0
108923.425,56.8483,-958.363,0,0
110225.05,53.2052,-943.489,0,0
111526.675,51.3878,-925.663,0,0
112828.3,51.6257,-908.092,0,0
114129.925,52.7741,-890.813,0,0
115431.55,55.2071,-873.983,0,0
116733.175,57.9818,-857.906,0,0
118034.8,61.906,-842.952,0,0
119336.425,65.9925,-829.515,0,0
120638.05,69.5575,-818.391,0,0
121939.675,69.7768,-807.522,0,0
123241,69.624,-794.636,0,0
124543,69.7729,-781.435,0,0
125845,69.8227,-767.469,0,0
127146,70.5728,-752.164,0,0
128448,73.5629,-737.012,0,0
129749,77.3421,-723.258,0,0
131051,81.7283,-710.834,0,0
132353,84.0128,-700.25,0,0
133654,85.1862,-688.192,0,0
134956,85.7357,-675.748,0,0
136258,86.8114,-661.3,0,0
137559,88.7243,-646.556,0,0
138860.775,90.992,-631.853,0,0
140162.4,93.3033,-615.662,0,0
141464.025,97.8672,-597.152,0,0
142765.65,106.38,-580.154,0,0
144067.275,114.369,-564.587,0,0
145368.9,123.643,-548.84,0,0
146670.525,133.931,-533.279,0,0
147972.15,147.023,-516.45,0,0
149273.775,165.392,-499.434,0,0
150575.4,191.312,-489.105,0,0
151877.025,218.035,-491.224,0,0
153178.65,235.72,-501.844,0,0
154480,243.156,-514.47,0,0
155782,245.597,-521.576,0,0
157084,244.133,-527.936,0,0
158385,241.182,-527.776,0,0
159687,237.778,-526.912,0,0
160988,235.813,-521.04,0,0
162290,242.476,-516.019,0,0
163592,240.251,-524.723,0,0
164893,227.843,-525.051,0,0
166195,212.549,-514.334,0,0
167497,203.165,-497.335,0,0
168798,198.382,-476.475,0,0
170100,198.213,-454.647,0,0
171401.375,201.681,-432.933,0,0
172703.0,208.742,-410.225,0,0
174004.625,218.86,-388.737,0,0
175306.25,233.513,-365.615,0,0
176607.875,254.085,-345.926,0,0
177909.5,278.36,-332.693,0,0
179211.125,301.017,-327.07,0,0
180512.75,312.248,-326.023,0,0
181814.375,320.161,-313.241,0,0
183116.0,334.118,-295.999,0,0
184417.625,353.581,-272.254,0,0
185719.25,385.305,-252.133,0,0
187021,417.361,-239.827,0,0
188322,456.125,-227.94,0,0
189624,492.931,-222.403,0,0
190926,534.622,-211.583,0,0
192227,590.726,-204.379,0,0
193529,661.17,-210.297,0,0
194831,734.87,-244.519,0,0
196132,793.794,-298.187,0,0
197434,842.229,-355.642,0,0
198735,886.793,-431.777,0,0
200037,905.767,-518.389,0,0
201339,906.308,-608.465,0,0
202640.35,880.82,-690.975,0,0
203941.975,840.117,-760.259,0,0
205243.6,795.047,-817.798,0,0
206545.225,734.751,-859.582,0,0
207846.85,677.248,-880.269,0,0
209148.475,634.916,-889.735,0,0
210450.1,593.773,-908.774,0,0
211751.725,542.609,-919.378,0,0
213053.35,494.476,-913.628,0,0
214354.975,454.608,-900.573,0,0
215656.6,422.806,-884.661,0,0
216958.225,397.758,-865.927,0,0
218259.85,379.821,-847.978,0,0
219561,366.834,-831.175,0,0
220863,357.656,-817.435,0,0
222165,351.705,-805.112,0,0
223466,348.123,-797.786,0,0
224768,342.494,-792.271,0,0
226070,337.517,-785.741,0,0
227371,336.263,-780.853,0,0
228673,337.343,-781.123,0,0
229974,334.567,-787.836,0,0
231276,325.166,-794.854,0,0
232578,313.537,-799.817,0,0
233879,299.274,-802.88,0,0
235180.95,284.3,-803.06,0,0
236482.575,269.452,-802.136,0,0
237784.2,253.191,-799.656,0,0
239085.825,237.541,-793.823,0,0
240387.45,223.205,-786.203,0,0
241689.075,210.537,-777.081,0,0
242990.7,200.504,-766.723,0,0
244292.325,193.404,-757.915,0,0
245593.95,186.849,-752.295,0,0
246895.575,176.707,-749.762,0,0
248197.2,161.892,-742.852,0,0
249498.825,147.958,-731.926,0,0
250800,135.543,-717.457,0,0
252102,126.795,-700.105,0,0
253404,122.268,-682.978,0,0
254705,119.71,-666.94,0,0
256007,118.88,-650.741,0,0
257309,121.162,-635.069,0,0
258610,125.253,-621.408,0,0
259912,131.009,-608.853,0,0
261213,138.588,-598.499,0,0
262515,147.158,-590.661,0,0
263817,155.63,-585.541,0,0
265118,163.515,-582.346,0,0
266420,170.562,-581.005,0,0
267721.55,176.947,-580.9,0,0
269023.175,181.799,-582.906,0,0
270324.8,183.277,-584.834,0,0
271626.425,184.054,-584.193,0,0
272928.05,186.175,-581.636,0,0
274229.675,192.023,-578.68,0,0
275531.3,202.959,-580.216,0,0
276832.925,212.474,-591.654,0,0
278134.55,212.465,-607.017,0,0
279436.175,205.684,-620.309,0,0
280737.8,194.191,-629.17,0,0
282039.425,182.057,-634.52,0,0
283341,166.683,-636.032,0,0
284643,154.887,-631.82,0,0
285944,142.447,-629.469,0,0
287246,127.484,-620.539,0,0
288548,117.592,-604.563,0,0
289849,116.849,-585.523,0,0
291151,125.405,-570.328,0,0
292452,140.232,-564.826,0,0
293754,149.895,-571.4,0,0
295056,149.317,-576.615,0,0
296357,152.124,-576.319,0,0
297659,156.155,-586.656,0,0
298960.525,148.055,-596.441,0,0
300262.15,137.422,-599.446,0,0
301563.775,128.026,-597.374,0,0
302865.4,122.951,-594.715,0,0
304167.025,117.89,-594.442,0,0
305468.65,110.933,-594.514,0,0
306770.275,102.211,-592.552,0,0
308071.9,94.1212,-588.151,0,0
309373.525,87.3673,-582.831,0,0
310675.15,81.4614,-577.269,0,0
311976.775,76.0735,-571.076,0,0
313278.4,71.6063,-564.586,0,0
314580,67.7943,-558.15,0,0
315882,64.4932,-551.585,0,0
317183,61.6182,-544.826,0,0
318485,59.6361,-538.057,0,0
319787,58.1492,-531.753,0,0
321088,56.7931,-525.455,0,0
322390,55.7873,-519.057,0,0
323691,55.292,-512.493,0,0
324993,55.6435,-505.585,0,0
326295,57.8328,-498.925,0,0
327596,61.3322,-494.346,0,0
328898,64.0292,-491.606,0,0
330200,66.3081,-489.535,0,0
331501.125,68.1648,-488.799,0,0
332802.75,68.2335,-489.167,0,0
334104.375,66.116,-488.856,0,0
335406.0,63.396,-486.829,0,0
336707.625,61.057,-483.792,0,0
338009.25,59.1776,-480.225,0,0
339310.875,57.6904,-476.572,0,0
340612.5,56.2778,-472.731,0,0
341914.125,55.0731,-468.611,0,0
343215.75,54.1388,-464.18,0,0
344517.375,53.7865,-459.463,0,0
345819.0,54.1089,-454.773,0,0
347121,54.8732,-450.421,0,0
348422,56.0867,-446.333,0,0
349724,57.6977,-442.692,0,0
351025,59.4495,-439.691,0,0
352327,61.0418,-437.218,0,0
353629,62.1442,-434.935,0,0
354930,63.3862,-432.347,0,0
356232,64.906,-429.981,0,0
357534,66.6958,-427.835,0,0
358835,68.7631,-426.381,0,0
360137,70.5587,-425.681,0,0
361438,71.8652,-425.584,0,0
362740.1,72.3372,-425.638,0,0
364041.725,72.141,-425.405,0,0
365343.35,71.8409,-424.765,0,0
366644.975,71.3827,-423.805,0,0
367946.6,71.329,-422.547,0,0
369248.225,72.0514,-421.726,0,0
370549.85,71.9459,-422.219,0,0
371851.475,70.7379,-422.063,0,0
373153.1,69.8176,-421.472,0,0
374454.725,68.794,-420.993,0,0
375756.35,67.3454,-420.815,0,0
377057.975,65.4178,-420.01,0,0
378359.6,63.6331,-419.297,0,0
379661,60.5972,-418.449,0,0
380963,57.5913,-415.108,0,0
382264,57.4984,-412.059,0,0
383566,56.6824,-411.23,0,0
384868,54.2735,-409.986,0,0
386169,51.5861,-407.467,0,0
387471,49.5478,-404.205,0,0
388773,48.0821,-400.74,0,0
390074,47.2307,-397.228,0,0
391376,47.0551,-394.147,0,0
392677,46.6059,-392.153,0,0
393979,44.8599,-389.93,0,0
395280.7,42.8908,-386.449,0,0
396582.325,41.769,-382.174,0,0
397883.95,41.5293,-377.752,0,0
399185.575,41.9493,-373.67,0,0
400006.6,42.4742,-371.262,0,0