File: Accelerated corrosion test data/2025-10-18_06-00-03/sample_8.csv
Frequency (Hz),Impedance (ohms),Phase (Radians),Temperature (C),Humidity (%)
10000.0,309.569,-11033.9,0,0
11301.625,274.691,-9778.02,0,0
12603.25,252.948,-8780.86,0,0
13904.875,224.799,-7975.72,0,0
15206.5,204.712,-7297.81,0,0
16508.125,188.495,-6728,0,0
17809.75,175.19,-6239.14,0,0
19111.375,167.488,-5813.72,0,0
20413.0,160.519,-5450.39,0,0
21714.625,149.405,-5128.85,0,0
23016.25,144.22,-4843.43,0,0
24317.875,132.54,-4585.77,0,0
25619.5,125.074,-4351.25,0,0
26921.1,120.272,-4139.53,0,0
28222.7,117.814,-3948.49,0,0
29524.4,113.931,-3774.9,0,0
30826,109.648,-3616.72,0,0
32127.6,105.979,-3467.55,0,0
33429.2,105.493,-3329.91,0,0
34730.9,106.582,-3204.62,0,0
36032.5,109.888,-3093.3,0,0
37334.1,106.566,-2993.4,0,0
38635.7,96.5353,-2896.18,0,0
39937.4,88.3547,-2798.89,0,0
41239,85.9781,-2707.95,0,0
42540.6,82.6829,-2622.56,0,0
43842.225,82.0937,-2544.44,0,0
45143.85,77.8251,-2469.82,0,0
46445.475,74.6956,-2398.26,0,0
47747.1,72.7802,-2330.36,0,0
49048.725,70.8349,-2266.66,0,0
50350.35,68.8031,-2205.3,0,0
51651.975,67.723,-2146.86,0,0
52953.6,67.345,-2091.76,0,0
54255.225,66.4741,-2041.5,0,0
55556.85,63.3814,-1991.81,0,0
56858.475,61.2401,-1942.81,0,0
58160.1,60.2135,-1895.96,0,0
59461.7,59.5545,-1851.87,0,0
60763.3,58.2556,-1808.98,0,0
62065,57.8807,-1767.79,0,0
63366.6,58.1331,-1728.02,0,0
64668.2,58.4433,-1691.41,0,0
65969.8,57.6521,-1656.12,0,0
67271.5,55.7896,-1621.59,0,0
68573.1,54.8781,-1587.48,0,0
69874.7,54.2958,-1554.21,0,0
71176.3,54.374,-1522.55,0,0
72478,54.4351,-1492.47,0,0
73779.6,53.7235,-1463.23,0,0
75081.2,52.8085,-1434.59,0,0
76382.825,52.4386,-1406.45,0,0
77684.45,52.1152,-1379.55,0,0
78986.075,51.5145,-1353.1,0,0
80287.7,51.0096,-1326.88,0,0
81589.325,50.9562,-1300.87,0,0
82890.95,51.7334,-1275.87,0,0
84192.575,52.9187,-1251.9,0,0
85494.2,53.6561,-1229.94,0,0
86795.825,53.0732,-1206.73,0,0
88097.45,53.7864,-1184.02,0,0
89399.075,54.4015,-1161.53,0,0
90700.7,56.056,-1138.65,0,0
92002.3,60.191,-1117.31,0,0
93303.9,63.5266,-1098.92,0,0
94605.6,64.1132,-1080.57,0,0
95907.2,65.7163,-1060.65,0,0
97208.8,69.262,-1041.02,0,0
98510.4,74.2148,-1022.7,0,0
99812.1,79.5058,-1007.49,0,0
101114,84.6457,-993.593,0,0
102415,88.0273,-982.498,0,0
103717,87.8318,-971.959,0,0
105019,86.9468,-959.453,0,0
106320.175,85.6346,-945.027,0,0
107621.8,85.9234,-931.285,0,0
108923.425,85.2866,-916.545,0,0
110225.05,86.9028,-902.347,0,0
111526.675,87.7255,-889.466,0,0
112828.3,88.7793,-877.377,0,0
114129.925,89.0351,-865.422,0,0
115431.55,89.325,-853.399,0,0
116733.175,87.9299,-841.767,0,0
118034.8,87.9498,-828.817,0,0
119336.425,87.7003,-816.812,0,0
120638.05,86.7044,-804.912,0,0
121939.675,86.0193,-792.562,0,0
123241,85.1184,-780.262,0,0
124543,84.0364,-767.591,0,0
125845,82.8456,-754.677,0,0
127146,81.802,-740.945,0,0
128448,81.5816,-726.637,0,0
129749,81.9106,-712.905,0,0
131051,82.8483,-698.266,0,0
132353,84.4247,-685.434,0,0
133654,84.9622,-672.531,0,0
134956,85.4871,-658.256,0,0
136258,88.2861,-644.348,0,0
137559,89.0791,-632.925,0,0
138860.775,87.8547,-617.76,0,0
140162.4,89.6938,-601.319,0,0
141464.025,92.3887,-585.505,0,0
142765.65,94.9331,-568.954,0,0
144067.275,99.2615,-551.186,0,0
145368.9,105.311,-532.797,0,0
146670.525,113.779,-514.901,0,0
147972.15,123.715,-498.869,0,0
149273.775,133.931,-479.44,0,0
150575.4,151.654,-459.974,0,0
151877.025,178.193,-449.142,0,0
153178.65,199.6,-451.07,0,0
154480,210.76,-456.76,0,0
155782,220.695,-453.261,0,0
157084,230.38,-466.682,0,0
158385,219.283,-463.331,0,0
159687,226.81,-454.073,0,0
160988,223.975,-455.084,0,0
162290,223.478,-439.746,0,0
163592,232.888,-430.894,0,0
164893,239.778,-426.153,0,0
166195,243.138,-428.538,0,0
167497,233.125,-424.902,0,0
168798,224.558,-410.945,0,0
170100,219.18,-388.8,0,0
171401.375,219.432,-363.844,0,0
172703.0,226.724,-332.606,0,0
174004.625,243.611,-305.64,0,0
175306.25,260.291,-284.768,0,0
176607.875,277.414,-257.127,0,0
177909.5,303.689,-231.438,0,0
179211.125,338.061,-203.687,0,0
180512.75,379.527,-184.392,0,0
181814.375,427.707,-169.594,0,0
183116.0,484.047,-172.788,0,0
184417.625,527.209,-189.113,0,0
185719.25,567.33,-201.348,0,0
187021,604.734,-225.577,0,0
188322,631.041,-245.631,0,0
189624,657.77,-267.999,0,0
190926,675.935,-281.072,0,0
192227,712.25,-291.531,0,0
193529,742.073,-297.206,0,0
194831,815.879,-313.021,0,0
196132,885.782,-371.095,0,0
197434,938.194,-462.979,0,0
198735,952.525,-575.998,0,0
200037,922.855,-681.129,0,0
201339,866.026,-759.501,0,0
202640.35,795.354,-824.711,0,0
203941.975,712.366,-839.581,0,0
205243.6,656.948,-835.602,0,0
206545.225,608.098,-825.365,0,0
207846.85,582.863,-799.163,0,0
209148.475,576.694,-789.285,0,0
210450.1,570.323,-784.647,0,0
211751.725,571.512,-787.378,0,0
213053.35,569.565,-802.476,0,0
214354.975,557.026,-820.032,0,0
215656.6,544.046,-833.701,0,0
216958.225,527.501,-850.322,0,0
218259.85,507.579,-864.979,0,0
219561,482.101,-880.797,0,0
220863,448.686,-890.425,0,0
222165,414.596,-885.788,0,0
223466,389.658,-874.175,0,0
224768,374.861,-861.284,0,0
226070,367.913,-855.825,0,0
227371,357.212,-858.931,0,0
228673,340.99,-861.264,0,0
229974,324.558,-863.821,0,0
231276,301.842,-867.032,0,0
232578,275.775,-862.482,0,0
233879,250.215,-853.811,0,0
235180.95,225.899,-837.743,0,0
236482.575,208.655,-816.89,0,0
237784.2,197.657,-796.257,0,0
239085.825,191.463,-776.014,0,0
240387.45,191.376,-760.701,0,0
241689.075,191.018,-751.304,0,0
242990.7,185.255,-744.483,0,0
244292.325,178.789,-733.641,0,0
245593.95,174.897,-722.157,0,0
246895.575,172.852,-711.198,0,0
248197.2,170.709,-703.002,0,0
249498.825,167.75,-693.467,0,0
250800,165.785,-683.298,0,0
252102,166.818,-673.104,0,0
253404,169.366,-666.58,0,0
254705,169.222,-662.709,0,0
256007,166.62,-658.3,0,0
257309,162.053,-651.373,0,0
258610,159.495,-640.404,0,0
259912,161.408,-628.915,0,0
261213,165.552,-620.393,0,0
262515,170.339,-613.399,0,0
263817,174.436,-607.219,0,0
265118,178.43,-600.273,0,0
266420,185.753,-590.645,0,0
267721.55,200.863,-582.76,0,0
269023.175,222.152,-584.195,0,0
270324.8,241.165,-596.757,0,0
271626.425,254.504,-619.081,0,0
272928.05,256.472,-648.289,0,0
274229.675,241.454,-678.647,0,0
275531.3,212.164,-694.246,0,0
276832.925,185.731,-694.819,0,0
278134.55,164.327,-689.014,0,0
279436.175,147.151,-679.059,0,0
280737.8,136.097,-665.781,0,0
282039.425,131.061,-654.247,0,0
283341,128.249,-645.982,0,0
284643,124.966,-638.804,0,0
285944,124.252,-630.647,0,0
287246,127.935,-626.288,0,0
288548,130.307,-630.206,0,0
289849,123.911,-636.318,0,0
291151,112.112,-637.101,0,0
292452,101.113,-633.27,0,0
293754,91.4275,-626.878,0,0
295056,83.1609,-618.947,0,0
296357,76.929,-609.734,0,0
297659,72.518,-600.763,0,0
298960.525,68.9198,-591.677,0,0
300262.15,66.7436,-582.398,0,0
301563.775,66.1382,-573.358,0,0
302865.4,67.1962,-565.24,0,0
304167.025,69.1339,-558.843,0,0
305468.65,71.033,-553.834,0,0
306770.275,72.8766,-550.079,0,0
308071.9,73.9234,-547.115,0,0
309373.525,74.7396,-545.281,0,0
310675.15,73.578,-543.437,0,0
311976.775,72.4591,-540.669,0,0
313278.4,71.4963,-538.267,0,0
314580,69.7359,-535.928,0,0
315882,67.5899,-532.82,0,0
317183,65.925,-529.035,0,0
318485,64.8002,-525.482,0,0
319787,63.9356,-521.835,0,0
321088,63.7653,-518.876,0,0
322390,62.8247,-516.851,0,0
323691,61.2603,-514.837,0,0
324993,58.8944,-512.585,0,0
326295,56.1538,-509.484,0,0
327596,53.8258,-505.745,0,0
328898,51.7946,-501.861,0,0
330200,49.8812,-497.626,0,0
331501.125,48.2859,-493.221,0,0
332802.75,47.0864,-488.626,0,0
334104.375,46.4968,-483.91,0,0
335406.0,46.5869,-479.51,0,0
336707.625,46.9643,-476.048,0,0
338009.25,46.996,-473.043,0,0
339310.875,46.4636,-470.247,0,0
340612.5,45.6041,-467.261,0,0
341914.125,44.4957,-464.045,0,0
343215.75,43.4599,-460.29,0,0
344517.375,42.8001,-456.272,0,0
345819.0,42.3105,-452.214,0,0
347121,42.2304,-448.049,0,0
348422,42.5739,-443.983,0,0
349724,43.1381,-440.096,0,0
351025,43.9985,-436.327,0,0
352327,45.2727,-432.992,0,0
353629,46.6126,-430.2,0,0
354930,47.6913,-427.804,0,0
356232,48.5966,-425.594,0,0
357534,49.2917,-423.567,0,0
358835,49.7187,-421.494,0,0
360137,50.1819,-419.428,0,0
361438,50.6121,-417.355,0,0
362740.1,50.9931,-415.376,0,0
364041.725,51.2458,-413.499,0,0
365343.35,51.4717,-411.591,0,0
366644.975,51.5781,-409.654,0,0
367946.6,51.6812,-407.655,0,0
369248.225,51.8545,-405.406,0,0
370549.85,52.6403,-403.221,0,0
371851.475,53.6169,-401.839,0,0
373153.1,54.0491,-401.029,0,0
374454.725,53.7176,-400.348,0,0
375756.35,52.842,-399.201,0,0
377057.975,52.0718,-397.305,0,0
378359.6,51.7031,-395.74,0,0
379661,50.7227,-394.106,0,0
380963,50.4172,-391.522,0,0
382264,50.7934,-390.154,0,0
383566,50.071,-389.343,0,0
384868,48.5135,-387.948,0,0
386169,46.8722,-385.877,0,0
387471,45.4374,-383.257,0,0
388773,44.3239,-380.209,0,0
390074,43.7802,-377.075,0,0
391376,43.5685,-374.199,0,0
392677,43.1865,-371.467,0,0
393979,42.8366,-368.668,0,0
395280.7,42.6813,-365.663,0,0
396582.325,42.8136,-362.673,0,0
397883.95,43.055,-359.946,0,0
399185.575,43.2197,-357.336,0,0
400006.6,43.2875,-355.681,0,0