File: Accelerated corrosion test data/2025-10-18_06-00-03/sample_1.csv
Frequency (Hz),Impedance (ohms),Phase (Radians),Temperature (C),Humidity (%)
10000.0,248.233,-12276.5,0,0
11301.625,220.062,-10874.1,0,0
12603.25,200.2,-9767.73,0,0
13904.875,187.326,-8837.83,0,0
15206.5,191.645,-8100.77,0,0
16508.125,158.893,-7473.93,0,0
17809.75,149.594,-6933.97,0,0
19111.375,138.477,-6463.15,0,0
20413.0,159.7,-6016.29,0,0
21714.625,138.142,-5698.23,0,0
23016.25,124.792,-5395.8,0,0
24317.875,115.599,-5101.07,0,0
25619.5,107.559,-4835.21,0,0
26921.1,116.71,-4583.5,0,0
28222.7,113.177,-4380.03,0,0
29524.4,110.98,-4213.91,0,0
30826,102.949,-4024.05,0,0
32127.6,99.9207,-3866.84,0,0
33429.2,90.3066,-3721.64,0,0
34730.9,84.2059,-3578.78,0,0
36032.5,79.5669,-3446.76,0,0
37334.1,76.8884,-3323.86,0,0
38635.7,74.5332,-3209.47,0,0
39937.4,72.6323,-3102.1,0,0
41239,74.0855,-3002.59,0,0
42540.6,72.7196,-2909.84,0,0
43842.225,69.3515,-2822.34,0,0
45143.85,69.8439,-2740.56,0,0
46445.475,66.5295,-2663.09,0,0
47747.1,65.6593,-2589.25,0,0
49048.725,62.977,-2518.73,0,0
50350.35,60.7604,-2451.83,0,0
51651.975,59.7474,-2388.14,0,0
52953.6,58.8067,-2326.7,0,0
54255.225,57.7963,-2269.3,0,0
55556.85,56.798,-2213.56,0,0
56858.475,55.8298,-2159.99,0,0
58160.1,55.5067,-2109.17,0,0
59461.7,55.2788,-2061,0,0
60763.3,55.4504,-2014.62,0,0
62065,53.9368,-1970.41,0,0
63366.6,53.3761,-1926.67,0,0
64668.2,53.7799,-1884.39,0,0
65969.8,56.1275,-1846.39,0,0
67271.5,54.3844,-1809.39,0,0
68573.1,53.6414,-1773.73,0,0
69874.7,53.1136,-1739.14,0,0
71176.3,51.1208,-1704.7,0,0
72478,49.2914,-1670.75,0,0
73779.6,48.9049,-1637.24,0,0
75081.2,49.1937,-1604.84,0,0
76382.825,49.8858,-1573.6,0,0
77684.45,50.8642,-1543.98,0,0
78986.075,52.5667,-1516.1,0,0
80287.7,51.8066,-1489.77,0,0
81589.325,51.1351,-1461.76,0,0
82890.95,51.6653,-1434.74,0,0
84192.575,53.017,-1408.27,0,0
85494.2,55.1946,-1383.49,0,0
86795.825,56.0789,-1360.06,0,0
88097.45,56.6148,-1336.44,0,0
89399.075,58.3057,-1311.65,0,0
90700.7,61.6576,-1288.26,0,0
92002.3,67.4015,-1266.45,0,0
93303.9,75.3607,-1248.85,0,0
94605.6,75.3428,-1242.12,0,0
95907.2,68.2004,-1223.82,0,0
97208.8,66.1516,-1203.25,0,0
98510.4,65.5727,-1182.88,0,0
99812.1,64.5028,-1163.37,0,0
101114,63.9246,-1143.12,0,0
102415,64.0526,-1121.21,0,0
103717,68.6822,-1100.18,0,0
105019,75.3014,-1082.56,0,0
106320.175,81.0589,-1065.86,0,0
107621.8,87.3479,-1053.01,0,0
108923.425,91.4808,-1041.05,0,0
110225.05,94.5788,-1031.99,0,0
111526.675,95.2698,-1019.14,0,0
112828.3,98.6918,-1009.28,0,0
114129.925,98.7335,-1002.07,0,0
115431.55,95.9452,-993.799,0,0
116733.175,91.1319,-982.985,0,0
118034.8,86.0011,-969.528,0,0
119336.425,83.4942,-954.197,0,0
120638.05,83.0584,-939.782,0,0
121939.675,81.3161,-926.904,0,0
123241,79.4937,-911.896,0,0
124543,79.486,-896.608,0,0
125845,80.0487,-881.637,0,0
127146,80.9687,-867.244,0,0
128448,82.954,-852.438,0,0
129749,85.2063,-838.074,0,0
131051,89.6706,-824.21,0,0
132353,94.2159,-812.929,0,0
133654,97.3921,-801.888,0,0
134956,101.098,-790.856,0,0
136258,104.474,-780.365,0,0
137559,110.162,-770.361,0,0
138860.775,113.308,-764.992,0,0
140162.4,112.494,-757.935,0,0
141464.025,111.482,-748.001,0,0
142765.65,111.791,-736.707,0,0
144067.275,113.119,-725.172,0,0
145368.9,115.465,-713.752,0,0
146670.525,119.163,-703.347,0,0
147972.15,122.061,-695.293,0,0
149273.775,123.008,-684.795,0,0
150575.4,125.876,-676.412,0,0
151877.025,124.25,-666.782,0,0
153178.65,122.956,-652.261,0,0
154480,125.932,-635.699,0,0
155782,132.295,-618.77,0,0
157084,143.402,-603.394,0,0
158385,156.198,-592.988,0,0
159687,165.294,-582.211,0,0
160988,182.338,-570.644,0,0
162290,200.911,-568.301,0,0
163592,213.056,-570.264,0,0
164893,224.828,-570.204,0,0
166195,238.703,-573.859,0,0
167497,247.938,-583.256,0,0
168798,250.824,-595.326,0,0
170100,244.94,-605.282,0,0
171401.375,235.678,-606.154,0,0
172703.0,231.481,-601.432,0,0
174004.625,228.503,-598.859,0,0
175306.25,227.41,-595.367,0,0
176607.875,225.854,-593.841,0,0
177909.5,222.707,-591.216,0,0
179211.125,217.842,-589.037,0,0
180512.75,211.759,-585.717,0,0
181814.375,204.121,-578.549,0,0
183116.0,196.504,-568.956,0,0
184417.625,190.049,-555.92,0,0
185719.25,187.438,-539.546,0,0
187021,187.48,-524.289,0,0
188322,190.357,-508.042,0,0
189624,194.141,-493.558,0,0
190926,198.006,-478.53,0,0
192227,203.35,-462.039,0,0
193529,211.677,-445.006,0,0
194831,221.957,-428.342,0,0
196132,234.587,-411.13,0,0
197434,250.192,-395.593,0,0
198735,267.427,-380.832,0,0
200037,285.638,-365.17,0,0
201339,309.178,-348.79,0,0
202640.35,339.455,-331.442,0,0
203941.975,379.119,-320.237,0,0
205243.6,429.766,-320.433,0,0
206545.225,478.547,-341.178,0,0
207846.85,514.691,-376.286,0,0
209148.475,537.414,-416.449,0,0
210450.1,542.801,-458.861,0,0
211751.725,531.399,-485.779,0,0
213053.35,524.327,-492.368,0,0
214354.975,535.373,-497.859,0,0
215656.6,548.373,-515.361,0,0
216958.225,555.099,-533.168,0,0
218259.85,562.839,-551.018,0,0
219561,571.726,-566.419,0,0
220863,586.736,-586.519,0,0
222165,603.323,-617.811,0,0
223466,608.688,-661.284,0,0
224768,603.064,-704.232,0,0
226070,586.555,-746.903,0,0
227371,563.191,-786.781,0,0
228673,526.837,-822.089,0,0
229974,483.548,-843.448,0,0
231276,440.642,-851.194,0,0
232578,403.758,-849.374,0,0
233879,375.863,-842.824,0,0
235180.95,353.475,-838.708,0,0
236482.575,330.855,-835.354,0,0
237784.2,309.099,-831.459,0,0
239085.825,286.303,-824.865,0,0
240387.45,266.408,-815.496,0,0
241689.075,248.949,-805.547,0,0
242990.7,232.671,-794.403,0,0
244292.325,219.616,-782.611,0,0
245593.95,207.788,-772.616,0,0
246895.575,195.586,-762.105,0,0
248197.2,184.442,-750.094,0,0
249498.825,175.197,-737.648,0,0
250800,167.536,-725.574,0,0
252102,160.903,-713.428,0,0
253404,154.655,-701.546,0,0
254705,149.777,-688.61,0,0
256007,147.304,-676.101,0,0
257309,145.458,-664.627,0,0
258610,144.235,-653.044,0,0
259912,145.193,-640.931,0,0
261213,148.955,-630.617,0,0
262515,153.448,-622.875,0,0
263817,158.323,-616.84,0,0
265118,163.717,-612.367,0,0
266420,170.351,-610.809,0,0
267721.55,175.96,-614.569,0,0
269023.175,175.424,-622.309,0,0
270324.8,166.639,-627.975,0,0
271626.425,155.238,-625.95,0,0
272928.05,146.502,-618.91,0,0
274229.675,141.57,-610.167,0,0
275531.3,139.457,-601.712,0,0
276832.925,138.853,-593.837,0,0
278134.55,140.195,-587.308,0,0
279436.175,142.073,-582.999,0,0
280737.8,143.045,-580.422,0,0
282039.425,142.649,-578.622,0,0
283341,140.331,-576.15,0,0
284643,138.498,-571.969,0,0
285944,137.066,-568.264,0,0
287246,134.321,-564.177,0,0
288548,132.047,-556.636,0,0
289849,134.755,-548.714,0,0
291151,138.959,-545.676,0,0
292452,140.371,-544.622,0,0
293754,138.989,-542.626,0,0
295056,137.542,-537.7,0,0
296357,138.47,-530.945,0,0
297659,142.333,-525.423,0,0
298960.525,146.73,-521.514,0,0
300262.15,151.683,-518.833,0,0
301563.775,157.423,-516.799,0,0
302865.4,164.105,-517.451,0,0
304167.025,168.969,-520.534,0,0
305468.65,172.749,-523.912,0,0
306770.275,176.156,-528.169,0,0
308071.9,178.083,-534.791,0,0
309373.525,176.981,-540.869,0,0
310675.15,175.391,-546.525,0,0
311976.775,172.466,-552.849,0,0
313278.4,166.4,-558.47,0,0
314580,159.412,-561.315,0,0
315882,153.373,-563.205,0,0
317183,146.501,-565.154,0,0
318485,138.548,-565.724,0,0
319787,130.445,-564.782,0,0
321088,122.5,-562.051,0,0
322390,115.306,-557.714,0,0
323691,109.767,-551.778,0,0
324993,106.597,-545.948,0,0
326295,104.769,-541.011,0,0
327596,103.828,-537.376,0,0
328898,102.595,-535.143,0,0
330200,100.574,-533.615,0,0
331501.125,97.7696,-532.019,0,0
332802.75,94.5797,-530.189,0,0
334104.375,90.9871,-528.141,0,0
335406.0,86.868,-525.383,0,0
336707.625,83.031,-521.914,0,0
338009.25,79.6261,-518.04,0,0
339310.875,76.488,-513.941,0,0
340612.5,73.9819,-509.671,0,0
341914.125,71.7784,-505.52,0,0
343215.75,69.6066,-501.556,0,0
344517.375,67.4306,-497.556,0,0
345819.0,65.3939,-493.398,0,0
347121,63.4167,-489.106,0,0
348422,61.7321,-484.362,0,0
349724,60.773,-479.73,0,0
351025,59.9316,-475.48,0,0
352327,59.2139,-471.252,0,0
353629,58.8066,-467.217,0,0
354930,58.256,-463.311,0,0
356232,57.8327,-459.326,0,0
357534,57.3881,-455.574,0,0
358835,57.0696,-451.625,0,0
360137,56.9752,-447.575,0,0
361438,57.1017,-443.713,0,0
362740.1,57.2865,-439.963,0,0
364041.725,57.5138,-436.211,0,0
365343.35,57.941,-432.42,0,0
366644.975,58.5311,-428.831,0,0
367946.6,58.8483,-425.186,0,0
369248.225,59.4335,-420.822,0,0
370549.85,61.0673,-416.407,0,0
371851.475,63.6289,-412.283,0,0
373153.1,67.0593,-409.156,0,0
374454.725,70.3885,-407.411,0,0
375756.35,73.1567,-406.386,0,0
377057.975,75.4045,-405.614,0,0
378359.6,77.4952,-405.069,0,0
379661,79.3475,-404.933,0,0
380963,80.9804,-404.596,0,0
382264,83.2346,-405.254,0,0
383566,84.414,-407.165,0,0
384868,84.1169,-409.412,0,0
386169,82.3029,-411.235,0,0
387471,79.5684,-411.85,0,0
388773,76.8752,-411.152,0,0
390074,74.6007,-409.871,0,0
391376,72.8608,-408.414,0,0
392677,71.1408,-407.354,0,0
393979,68.6685,-406.187,0,0
395280.7,65.8533,-404.011,0,0
396582.325,63.4053,-401.036,0,0
397883.95,61.6584,-397.522,0,0
399185.575,60.4555,-393.946,0,0
400006.6,59.8958,-391.724,0,0