File: Accelerated corrosion test data/2025-10-18_06-00-03/sample_3.csv
Frequency (Hz),Impedance (ohms),Phase (Radians),Temperature (C),Humidity (%)
10000.0,256.72,-11923.8,0,0
11301.625,228.912,-10561.8,0,0
12603.25,207.369,-9478.9,0,0
13904.875,190.172,-8596.7,0,0
15206.5,178.003,-7856.67,0,0
16508.125,164.751,-7256.38,0,0
17809.75,160.751,-6723.53,0,0
19111.375,149.733,-6266.46,0,0
20413.0,164.036,-5860.99,0,0
21714.625,143.346,-5536.45,0,0
23016.25,130.458,-5227.15,0,0
24317.875,122.601,-4945.32,0,0
25619.5,115.824,-4695.38,0,0
26921.1,111.61,-4461.92,0,0
28222.7,106.34,-4252.52,0,0
29524.4,110.633,-4074.58,0,0
30826,104.299,-3900.19,0,0
32127.6,104.183,-3733.25,0,0
33429.2,101.818,-3609.08,0,0
34730.9,90.0101,-3469.01,0,0
36032.5,85.1574,-3339.9,0,0
37334.1,81.7367,-3220.54,0,0
38635.7,79.6325,-3109.25,0,0
39937.4,77.0338,-3005.33,0,0
41239,75.8265,-2907.22,0,0
42540.6,74.4769,-2816.72,0,0
43842.225,73.3275,-2729.97,0,0
45143.85,72.1601,-2649.51,0,0
46445.475,71.0166,-2572.47,0,0
47747.1,71.9007,-2499.59,0,0
49048.725,69.7177,-2433.42,0,0
50350.35,67.6622,-2367.48,0,0
51651.975,67.2642,-2304.21,0,0
52953.6,67.356,-2243.83,0,0
54255.225,69.8803,-2188.01,0,0
55556.85,67.9008,-2139.72,0,0
56858.475,62.6823,-2086.71,0,0
58160.1,62.0533,-2034.11,0,0
59461.7,62.4741,-1984.28,0,0
60763.3,63.73,-1937.3,0,0
62065,65.6534,-1891.81,0,0
63366.6,69.0952,-1847.69,0,0
64668.2,77.5155,-1805.34,0,0
65969.8,93.3288,-1777.71,0,0
67271.5,76.3289,-1753.69,0,0
68573.1,76.2392,-1714.95,0,0
69874.7,77.4685,-1685.26,0,0
71176.3,72.9534,-1654.68,0,0
72478,71.5833,-1621.64,0,0
73779.6,70.4493,-1593.62,0,0
75081.2,66.7324,-1565.69,0,0
76382.825,62.8067,-1536.74,0,0
77684.45,59.8434,-1507.69,0,0
78986.075,57.3055,-1478.92,0,0
80287.7,55.5329,-1450.54,0,0
81589.325,54.2531,-1422.96,0,0
82890.95,53.6369,-1396.2,0,0
84192.575,53.1548,-1370.26,0,0
85494.2,52.9683,-1344.95,0,0
86795.825,53.0653,-1320.31,0,0
88097.45,53.4291,-1296.17,0,0
89399.075,54.6909,-1272.13,0,0
90700.7,56.6099,-1250.13,0,0
92002.3,58.7279,-1228.94,0,0
93303.9,61.4935,-1209.57,0,0
94605.6,62.8735,-1194.82,0,0
95907.2,57.7281,-1176.58,0,0
97208.8,56.3642,-1155.13,0,0
98510.4,56.1952,-1135.1,0,0
99812.1,55.9355,-1115.84,0,0
101114,55.6387,-1096.02,0,0
102415,57.007,-1075.44,0,0
103717,60.7011,-1057.54,0,0
105019,64.2885,-1042.84,0,0
106320.175,64.1337,-1029.17,0,0
107621.8,62.1828,-1013.77,0,0
108923.425,60.0941,-996.693,0,0
110225.05,59.8136,-978.187,0,0
111526.675,61.668,-960.071,0,0
112828.3,63.9117,-943.876,0,0
114129.925,65.123,-928.102,0,0
115431.55,66.5964,-911.118,0,0
116733.175,69.8412,-893.997,0,0
118034.8,75.5423,-877.224,0,0
119336.425,82.4147,-864.136,0,0
120638.05,89.4087,-857.935,0,0
121939.675,86.0199,-849.82,0,0
123241,86.4164,-835.602,0,0
124543,88.3134,-823.394,0,0
125845,90.5418,-812.668,0,0
127146,90.757,-802.861,0,0
128448,89.7841,-792.6,0,0
129749,88.8032,-780.323,0,0
131051,89.7551,-768.183,0,0
132353,88.5404,-757.235,0,0
133654,87.5639,-745.329,0,0
134956,86.2622,-732.511,0,0
136258,84.9234,-719.376,0,0
137559,84.4186,-704.34,0,0
138860.775,85.9423,-690.829,0,0
140162.4,85.3173,-677.723,0,0
141464.025,84.6129,-664.054,0,0
142765.65,83.2782,-648.296,0,0
144067.275,83.3136,-631.077,0,0
145368.9,84.6898,-613.037,0,0
146670.525,87.0235,-594.176,0,0
147972.15,90.9525,-574.705,0,0
149273.775,96.8689,-554.32,0,0
150575.4,106.383,-533.976,0,0
151877.025,118.252,-516.104,0,0
153178.65,130.681,-501.68,0,0
154480,141.458,-488.429,0,0
155782,150.269,-473.298,0,0
157084,161.672,-455.806,0,0
158385,178.758,-445.254,0,0
159687,182.569,-431.464,0,0
160988,195.316,-405.432,0,0
162290,218.447,-378.942,0,0
163592,250.468,-355.33,0,0
164893,296.784,-339.745,0,0
166195,347.84,-348.395,0,0
167497,390.016,-372.708,0,0
168798,414.809,-404.582,0,0
170100,422.899,-444.296,0,0
171401.375,415.893,-460.622,0,0
172703.0,416.28,-471.057,0,0
174004.625,424.586,-483.291,0,0
175306.25,428.054,-500.619,0,0
176607.875,430.408,-526.053,0,0
177909.5,404.762,-552.701,0,0
179211.125,373.622,-545.853,0,0
180512.75,367.184,-528.249,0,0
181814.375,374.277,-524.571,0,0
183116.0,369.393,-532.583,0,0
184417.625,354.536,-534.441,0,0
185719.25,337.927,-525.337,0,0
187021,327.507,-505.035,0,0
188322,328.582,-486.037,0,0
189624,329.57,-468.207,0,0
190926,338.097,-450.95,0,0
192227,346.803,-436.124,0,0
193529,357.253,-415.976,0,0
194831,379.29,-399.549,0,0
196132,407.322,-390.333,0,0
197434,430.948,-397.656,0,0
198735,446.315,-402.765,0,0
200037,455.623,-405.422,0,0
201339,463.88,-397.769,0,0
202640.35,484.985,-387.105,0,0
203941.975,516.943,-387.018,0,0
205243.6,545.363,-401.493,0,0
206545.225,556.541,-415.353,0,0
207846.85,574.395,-413.462,0,0
209148.475,608.796,-417.562,0,0
210450.1,644.163,-438.256,0,0
211751.725,674.434,-468.967,0,0
213053.35,699.446,-504.188,0,0
214354.975,716.455,-549.581,0,0
215656.6,721.779,-595.002,0,0
216958.225,722.165,-640.78,0,0
218259.85,710.525,-686.39,0,0
219561,693.256,-722.949,0,0
220863,677.083,-760.174,0,0
222165,652.395,-802.304,0,0
223466,607.167,-834.022,0,0
224768,563.289,-841.666,0,0
226070,537.296,-841.643,0,0
227371,516.715,-849.307,0,0
228673,489.599,-860.236,0,0
229974,462.675,-864.345,0,0
231276,434.775,-867.117,0,0
232578,408.658,-864.9,0,0
233879,385.016,-861.765,0,0
235180.95,363.269,-857.235,0,0
236482.575,340.763,-853.616,0,0
237784.2,317.392,-847.739,0,0
239085.825,293.229,-836.177,0,0
240387.45,273.944,-821.824,0,0
241689.075,257.149,-805,0,0
242990.7,245.887,-787.214,0,0
244292.325,239.415,-772.525,0,0
245593.95,231.019,-760.479,0,0
246895.575,224,-746.3,0,0
248197.2,219.059,-732.744,0,0
249498.825,218.045,-718.845,0,0
250800,218.716,-711.491,0,0
252102,214.094,-706.201,0,0
253404,206.65,-697.23,0,0
254705,199.991,-683.952,0,0
256007,198.054,-666.553,0,0
257309,204.254,-651.164,0,0
258610,211.156,-640.376,0,0
259912,223.126,-629.398,0,0
261213,240.194,-627.209,0,0
262515,254.427,-638.225,0,0
263817,256.34,-653.994,0,0
265118,248.785,-667.266,0,0
266420,234.709,-674.875,0,0
267721.55,218.095,-673.422,0,0
269023.175,206.481,-664.988,0,0
270324.8,199.178,-655.738,0,0
271626.425,195.621,-646.227,0,0
272928.05,193.316,-638.696,0,0
274229.675,191.443,-629.433,0,0
275531.3,193.196,-620.057,0,0
276832.925,199.108,-612.179,0,0
278134.55,207.441,-609.997,0,0
279436.175,214.163,-613.101,0,0
280737.8,216.395,-619.738,0,0
282039.425,213.826,-626.113,0,0
283341,208.18,-630.414,0,0
284643,200.619,-632.053,0,0
285944,192.739,-630.398,0,0
287246,186.83,-625.908,0,0
288548,184.503,-621.589,0,0
289849,182.84,-619.193,0,0
291151,180.752,-619.179,0,0
292452,174.991,-618.214,0,0
293754,170.205,-613.518,0,0
295056,168.428,-608.646,0,0
296357,168.646,-605.897,0,0
297659,168.093,-605.759,0,0
298960.525,165.446,-606.102,0,0
300262.15,161.826,-606.287,0,0
301563.775,156.89,-605.979,0,0
302865.4,151.088,-604.241,0,0
304167.025,145.485,-601.184,0,0
305468.65,140.263,-596.872,0,0
306770.275,136.423,-591.716,0,0
308071.9,134.062,-586.582,0,0
309373.525,132.51,-582.563,0,0
310675.15,131.033,-579.589,0,0
311976.775,128.406,-577.393,0,0
313278.4,124.575,-574.423,0,0
314580,120.504,-569.602,0,0
315882,118.407,-563.412,0,0
317183,118.378,-558.149,0,0
318485,118.474,-554.48,0,0
319787,118.327,-550.969,0,0
321088,118.609,-547.658,0,0
322390,119.895,-544.908,0,0
323691,121.425,-544.376,0,0
324993,121.184,-545.81,0,0
326295,118.478,-547.097,0,0
327596,114.473,-547.19,0,0
328898,109.877,-546.089,0,0
330200,105.384,-543.796,0,0
331501.125,101.113,-541.199,0,0
332802.75,96.5491,-538.116,0,0
334104.375,92.0241,-533.961,0,0
335406.0,87.8168,-528.93,0,0
336707.625,84.4881,-523.144,0,0
338009.25,82.0772,-517.227,0,0
339310.875,80.1068,-510.957,0,0
340612.5,79.283,-504.065,0,0
341914.125,80.315,-497.413,0,0
343215.75,82.7962,-492.384,0,0
344517.375,85.1171,-489.62,0,0
345819.0,85.929,-487.782,0,0
347121,85.8306,-485.747,0,0
348422,85.0888,-483.219,0,0
349724,84.4673,-479.652,0,0
351025,85.4481,-475.74,0,0
352327,87.2114,-473.656,0,0
353629,87.7358,-472.948,0,0
354930,86.7352,-471.875,0,0
356232,85.4985,-470.104,0,0
357534,83.9625,-467.74,0,0
358835,82.7378,-464.498,0,0
360137,82.5873,-461.187,0,0
361438,82.4875,-458.665,0,0
362740.1,81.8691,-455.914,0,0
364041.725,82.1303,-452.524,0,0
365343.35,83.4415,-450.166,0,0
366644.975,84.1342,-449.225,0,0
367946.6,83.194,-448.72,0,0
369248.225,80.8577,-446.659,0,0
370549.85,80.0152,-442.542,0,0
371851.475,81.4324,-439.6,0,0
373153.1,82.0437,-439.096,0,0
374454.725,80.4085,-438.112,0,0
375756.35,78.5543,-435.476,0,0
377057.975,77.6645,-431.774,0,0
378359.6,78.0191,-428.258,0,0
379661,79.2738,-425.49,0,0
380963,80.3743,-424.257,0,0
382264,80.268,-423.174,0,0
383566,79.9274,-422.041,0,0
384868,78.7658,-420.786,0,0
386169,77.2339,-418.814,0,0
387471,75.6907,-416.119,0,0
388773,74.4468,-412.603,0,0
390074,74.0031,-408.376,0,0
391376,74.9105,-403.988,0,0
392677,77.1978,-400.274,0,0
393979,79.9612,-398.313,0,0
395280.7,82.0331,-397.337,0,0
396582.325,83.7604,-396.816,0,0
397883.95,84.9236,-397.032,0,0
399185.575,85.0263,-397.443,0,0
400006.6,84.821,-397.565,0,0