File: Accelerated corrosion test data/2025-10-18_06-00-03/sample_4.csv
Frequency (Hz),Impedance (ohms),Phase (Radians),Temperature (C),Humidity (%)
10000.0,266.592,-11960.3,0,0
11301.625,237.442,-10596,0,0
12603.25,216.055,-9506.09,0,0
13904.875,196.177,-8617.38,0,0
15206.5,182.565,-7888.21,0,0
16508.125,196.215,-7271.89,0,0
17809.75,157.802,-6759.68,0,0
19111.375,147.202,-6298.82,0,0
20413.0,142.299,-5895.27,0,0
21714.625,148.088,-5547.64,0,0
23016.25,126.696,-5246.12,0,0
24317.875,117.683,-4959.78,0,0
25619.5,113.382,-4704.7,0,0
26921.1,107.752,-4473.36,0,0
28222.7,122.638,-4269.16,0,0
29524.4,116.582,-4089.44,0,0
30826,100.128,-3915.42,0,0
32127.6,102.271,-3753.6,0,0
33429.2,91.328,-3611.9,0,0
34730.9,85.8682,-3472.4,0,0
36032.5,82.7075,-3344.11,0,0
37334.1,80.2516,-3224.6,0,0
38635.7,78.0191,-3111.48,0,0
39937.4,78.0132,-3005.11,0,0
41239,81.4377,-2909.15,0,0
42540.6,79.9536,-2821.83,0,0
43842.225,74.3425,-2737.37,0,0
45143.85,71.7834,-2655.42,0,0
46445.475,71.658,-2577.74,0,0
47747.1,70.4644,-2507.8,0,0
49048.725,66.58,-2437.79,0,0
50350.35,64.9768,-2370.15,0,0
51651.975,64.7092,-2305.26,0,0
52953.6,66.221,-2241.6,0,0
54255.225,74.077,-2184.27,0,0
55556.85,72.0677,-2141.46,0,0
56858.475,66.1043,-2086.74,0,0
58160.1,66.7198,-2034.28,0,0
59461.7,70.5219,-1983.65,0,0
60763.3,80.8003,-1944.63,0,0
62065,70.2779,-1911.53,0,0
63366.6,64.5625,-1865.58,0,0
64668.2,64.6996,-1822.07,0,0
65969.8,66.5388,-1780.84,0,0
67271.5,69.6099,-1744.1,0,0
68573.1,74.557,-1714.5,0,0
69874.7,67.2144,-1685.73,0,0
71176.3,65.0401,-1650.45,0,0
72478,59.522,-1619.01,0,0
73779.6,57.9223,-1582.41,0,0
75081.2,59.7788,-1548.93,0,0
76382.825,62.3643,-1519.84,0,0
77684.45,65.6903,-1491.43,0,0
78986.075,64.8289,-1469.31,0,0
80287.7,61.7668,-1442.47,0,0
81589.325,61.4744,-1416.31,0,0
82890.95,60.2286,-1391.61,0,0
84192.575,58.78,-1366.76,0,0
85494.2,57.6862,-1342.46,0,0
86795.825,56.7136,-1318.52,0,0
88097.45,55.1079,-1295.53,0,0
89399.075,53.9195,-1271.04,0,0
90700.7,53.843,-1247.8,0,0
92002.3,54.0915,-1224.57,0,0
93303.9,55.7803,-1203.45,0,0
94605.6,54.2817,-1183.71,0,0
95907.2,53.3529,-1161.37,0,0
97208.8,53.7982,-1139.55,0,0
98510.4,54.7465,-1117.89,0,0
99812.1,56.916,-1097.16,0,0
101114,60.5856,-1077.93,0,0
102415,60.1908,-1062.65,0,0
103717,57.6152,-1040.42,0,0
105019,60.549,-1016.94,0,0
106320.175,66.6189,-995.897,0,0
107621.8,72.9348,-977.396,0,0
108923.425,80.9079,-959.672,0,0
110225.05,89.3459,-945.957,0,0
111526.675,95.7982,-934.289,0,0
112828.3,101.696,-923.271,0,0
114129.925,106.231,-914.027,0,0
115431.55,109.266,-905.709,0,0
116733.175,109.965,-897.187,0,0
118034.8,109.324,-886.816,0,0
119336.425,110.865,-874.059,0,0
120638.05,116.83,-869.78,0,0
121939.675,109.444,-864.639,0,0
123241,104.072,-852.538,0,0
124543,101.143,-839.675,0,0
125845,100.236,-827.497,0,0
127146,97.667,-818.128,0,0
128448,92.8969,-808.177,0,0
129749,84.3998,-795.323,0,0
131051,77.9341,-777.652,0,0
132353,74.239,-758.629,0,0
133654,72.6357,-739.395,0,0
134956,72.569,-720.156,0,0
136258,74.0436,-701.327,0,0
137559,76.3573,-683.484,0,0
138860.775,78.0795,-665.098,0,0
140162.4,81.2974,-645.785,0,0
141464.025,86.4298,-626.531,0,0
142765.65,92.5818,-608.394,0,0
144067.275,99.0948,-590.589,0,0
145368.9,105.849,-572.538,0,0
146670.525,114.199,-553.591,0,0
147972.15,124.355,-535.067,0,0
149273.775,136.236,-516.687,0,0
150575.4,149.75,-497.999,0,0
151877.025,167.534,-480.355,0,0
153178.65,189.758,-466.52,0,0
154480,212.254,-459.8,0,0
155782,231.101,-455.133,0,0
157084,247.472,-453.679,0,0
158385,262.036,-450.047,0,0
159687,280.384,-448.193,0,0
160988,297.477,-452.609,0,0
162290,306.88,-458.353,0,0
163592,310.174,-460.635,0,0
164893,315.484,-453.937,0,0
166195,328.487,-442.501,0,0
167497,354.537,-437.227,0,0
168798,382.9,-446.906,0,0
170100,407.944,-470.902,0,0
171401.375,413.845,-509.61,0,0
172703.0,395.804,-542.806,0,0
174004.625,363.147,-556.533,0,0
175306.25,332.525,-551.894,0,0
176607.875,308.543,-532.603,0,0
177909.5,298.143,-508.588,0,0
179211.125,295.127,-485.62,0,0
180512.75,298.498,-465.19,0,0
181814.375,303.132,-448.477,0,0
183116.0,306.599,-432.521,0,0
184417.625,310.207,-413.967,0,0
185719.25,316.215,-392.797,0,0
187021,324.748,-370.065,0,0
188322,336.56,-344.115,0,0
189624,353.908,-315.53,0,0
190926,378.797,-285.3,0,0
192227,412.649,-255.277,0,0
193529,456.098,-229.032,0,0
194831,508.073,-208.257,0,0
196132,568.201,-192.328,0,0
197434,641.192,-184.404,0,0
198735,728.789,-191.113,0,0
200037,830.232,-228.778,0,0
201339,921.729,-306.954,0,0
202640.35,982.447,-413.847,0,0
203941.975,1012.98,-530.977,0,0
205243.6,1003.38,-649.752,0,0
206545.225,969.011,-755.759,0,0
207846.85,907.178,-850.14,0,0
209148.475,822.996,-912.161,0,0
210450.1,740.955,-938.549,0,0
211751.725,672.479,-944.788,0,0
213053.35,617.908,-941.148,0,0
214354.975,576.107,-928.444,0,0
215656.6,551.386,-922.894,0,0
216958.225,522.275,-924.907,0,0
218259.85,493.381,-922.777,0,0
219561,466.735,-919.518,0,0
220863,439.918,-915.2,0,0
222165,416.051,-907.308,0,0
223466,396.426,-899.016,0,0
224768,380.385,-894.638,0,0
226070,361.203,-892.816,0,0
227371,338.703,-890.177,0,0
228673,313.346,-883.234,0,0
229974,290.178,-870.38,0,0
231276,270.76,-855.219,0,0
232578,255.201,-838.783,0,0
233879,242.015,-823.07,0,0
235180.95,231.44,-807.391,0,0
236482.575,221.617,-792.197,0,0
237784.2,213.552,-775.765,0,0
239085.825,209.159,-760.144,0,0
240387.45,206.622,-746.485,0,0
241689.075,205.05,-735.07,0,0
242990.7,203.521,-725.692,0,0
244292.325,200.663,-718.329,0,0
245593.95,195.433,-710.106,0,0
246895.575,189.943,-700.01,0,0
248197.2,186.142,-688.437,0,0
249498.825,184.051,-676.564,0,0
250800,184.012,-666.093,0,0
252102,182.38,-657.839,0,0
253404,179.053,-647.179,0,0
254705,177.161,-635.188,0,0
256007,175.44,-620.486,0,0
257309,177.619,-603.11,0,0
258610,185.085,-585.219,0,0
259912,198.21,-569.699,0,0
261213,215.84,-557.553,0,0
262515,236.542,-551.233,0,0
263817,259.541,-553.124,0,0
265118,278.342,-561.514,0,0
266420,294.253,-573.879,0,0
267721.55,309.188,-591.913,0,0
269023.175,312.681,-619.266,0,0
270324.8,302.994,-639.353,0,0
271626.425,293.424,-652.536,0,0
272928.05,282.211,-664.405,0,0
274229.675,269.634,-674.405,0,0
275531.3,252.277,-682.671,0,0
276832.925,232.036,-685.145,0,0
278134.55,210.525,-677.972,0,0
279436.175,199.036,-662.83,0,0
280737.8,196.259,-652.58,0,0
282039.425,192.718,-644.215,0,0
283341,194.254,-638.224,0,0
284643,193.585,-637.862,0,0
285944,188.277,-638.458,0,0
287246,179.666,-635.288,0,0
288548,171.063,-626.471,0,0
289849,169.332,-612.774,0,0
291151,174.978,-601.782,0,0
292452,185.59,-596.685,0,0
293754,195.973,-600.853,0,0
295056,200.402,-611.575,0,0
296357,195.508,-622.826,0,0
297659,185.704,-628.378,0,0
298960.525,176.255,-629.529,0,0
300262.15,167.496,-629.392,0,0
301563.775,158.814,-627.334,0,0
302865.4,151.156,-623.97,0,0
304167.025,143.907,-619.869,0,0
305468.65,137.608,-614.754,0,0
306770.275,132.215,-608.876,0,0
308071.9,128.769,-602.875,0,0
309373.525,126.21,-598.302,0,0
310675.15,122.654,-594.264,0,0
311976.775,119.251,-589.254,0,0
313278.4,116.703,-583.951,0,0
314580,115.297,-578.953,0,0
315882,114.307,-574.952,0,0
317183,113.534,-571.539,0,0
318485,112.819,-568.988,0,0
319787,111.752,-567.841,0,0
321088,108.96,-567.842,0,0
322390,103.382,-567.141,0,0
323691,96.5756,-563.595,0,0
324993,91.4204,-557.72,0,0
326295,87.6259,-551.6,0,0
327596,84.3957,-545.369,0,0
328898,81.8325,-538.708,0,0
330200,80.7672,-531.328,0,0
331501.125,81.4426,-524.98,0,0
332802.75,82.8456,-520.696,0,0
334104.375,82.6753,-517.993,0,0
335406.0,81.1602,-514.765,0,0
336707.625,79.0986,-510.633,0,0
338009.25,77.3912,-505.33,0,0
339310.875,76.2545,-499.371,0,0
340612.5,76.4529,-492.715,0,0
341914.125,78.6217,-486.21,0,0
343215.75,82.5431,-481.466,0,0
344517.375,86.4336,-479.172,0,0
345819.0,89.1364,-478.524,0,0
347121,90.2663,-478.729,0,0
348422,89.706,-478.724,0,0
349724,88.4923,-477.845,0,0
351025,86.7354,-476.343,0,0
352327,84.5731,-473.793,0,0
353629,83.4533,-470.26,0,0
354930,82.9185,-467.227,0,0
356232,82.4913,-464.276,0,0
357534,81.9957,-461.595,0,0
358835,81.0784,-458.947,0,0
360137,79.9089,-455.752,0,0
361438,79.2186,-451.567,0,0
362740.1,79.6222,-447.738,0,0
364041.725,79.7066,-444.446,0,0
365343.35,79.5836,-440.835,0,0
366644.975,79.829,-436.351,0,0
367946.6,80.8939,-431.501,0,0
369248.225,83.4076,-426.562,0,0
370549.85,87.2985,-422.173,0,0
371851.475,92.9209,-419.426,0,0
373153.1,98.9927,-419.749,0,0
374454.725,102.658,-422.855,0,0
375756.35,103.488,-425.598,0,0
377057.975,103.409,-427.351,0,0
378359.6,102.993,-428.325,0,0
379661,102.522,-429.323,0,0
380963,101.198,-430.046,0,0
382264,100.594,-429.153,0,0
383566,101.78,-430.2,0,0
384868,100.634,-433.514,0,0
386169,96.5609,-436.147,0,0
387471,90.7609,-435.735,0,0
388773,86.5624,-432.48,0,0
390074,85.038,-428.86,0,0
391376,85.1777,-427.561,0,0
392677,83.0633,-428.379,0,0
393979,78.9046,-427.88,0,0
395280.7,74.3867,-425.561,0,0
396582.325,70.4324,-422.011,0,0
397883.95,67.1498,-417.751,0,0
399185.575,64.577,-412.815,0,0
400006.6,63.2808,-409.446,0,0