File: Accelerated corrosion test data/2025-10-18_06-00-03/sample_7.csv
Frequency (Hz),Impedance (ohms),Phase (Radians),Temperature (C),Humidity (%)
10000.0,277.76,-12143.6,0,0
11301.625,250.328,-10741.2,0,0
12603.25,264.302,-9687.97,0,0
13904.875,211.974,-8790.15,0,0
15206.5,198.955,-8048.03,0,0
16508.125,173.158,-7404.59,0,0
17809.75,170.541,-6847.35,0,0
19111.375,182.367,-6394.75,0,0
20413.0,170.067,-6014.28,0,0
21714.625,158.302,-5670.12,0,0
23016.25,131.3,-5341.2,0,0
24317.875,123.837,-5046.47,0,0
25619.5,119.483,-4781.19,0,0
26921.1,121.984,-4534.53,0,0
28222.7,182.658,-4312.18,0,0
29524.4,142.761,-4197.79,0,0
30826,131.513,-4006.1,0,0
32127.6,120.26,-3859.2,0,0
33429.2,102.539,-3708.14,0,0
34730.9,93.2504,-3562.39,0,0
36032.5,89.1763,-3427.99,0,0
37334.1,86.7915,-3303.22,0,0
38635.7,87.3767,-3185.37,0,0
39937.4,100.355,-3085.78,0,0
41239,87.8966,-2999.65,0,0
42540.6,80.5627,-2902.34,0,0
43842.225,79.247,-2811.95,0,0
45143.85,80.9947,-2734.1,0,0
46445.475,77.9173,-2662.49,0,0
47747.1,71.0328,-2585.25,0,0
49048.725,68.4773,-2514.63,0,0
50350.35,66.5584,-2447.17,0,0
51651.975,64.9469,-2383.32,0,0
52953.6,64.2089,-2322.49,0,0
54255.225,62.6,-2265.65,0,0
55556.85,61.265,-2210.73,0,0
56858.475,60.4202,-2157.93,0,0
58160.1,59.6967,-2107.27,0,0
59461.7,59.547,-2059.82,0,0
60763.3,59.0629,-2015.7,0,0
62065,57.1106,-1972.11,0,0
63366.6,55.7666,-1929.2,0,0
64668.2,55.1972,-1888.38,0,0
65969.8,55.0449,-1849.64,0,0
67271.5,53.3808,-1812.8,0,0
68573.1,52.2192,-1775.94,0,0
69874.7,51.6372,-1740.6,0,0
71176.3,51.4387,-1706.57,0,0
72478,50.5334,-1674.15,0,0
73779.6,49.502,-1642.33,0,0
75081.2,48.9814,-1611.36,0,0
76382.825,48.3864,-1581.51,0,0
77684.45,48.1169,-1552.47,0,0
78986.075,47.7834,-1524.42,0,0
80287.7,47.6518,-1497.32,0,0
81589.325,47.2457,-1470.97,0,0
82890.95,46.8769,-1445.22,0,0
84192.575,46.8287,-1419.92,0,0
85494.2,47.1587,-1395.74,0,0
86795.825,47.2325,-1372.29,0,0
88097.45,47.3264,-1349.67,0,0
89399.075,46.7677,-1327.32,0,0
90700.7,46.8935,-1304.91,0,0
92002.3,47.0736,-1283.02,0,0
93303.9,47.5094,-1261.41,0,0
94605.6,50.218,-1241.22,0,0
95907.2,49.8136,-1224.16,0,0
97208.8,49.0072,-1204.01,0,0
98510.4,50.0014,-1184.83,0,0
99812.1,50.0492,-1166.36,0,0
101114,51.0266,-1146.9,0,0
102415,52.7283,-1128.72,0,0
103717,55.3948,-1111.67,0,0
105019,56.5269,-1096.68,0,0
106320.175,56.1109,-1080.96,0,0
107621.8,56.8563,-1064.04,0,0
108923.425,57.8477,-1047.63,0,0
110225.05,58.5892,-1030.62,0,0
111526.675,61.4212,-1013.66,0,0
112828.3,66.0997,-997.17,0,0
114129.925,71.4616,-982.881,0,0
115431.55,78.0086,-969.563,0,0
116733.175,86.8683,-960.768,0,0
118034.8,91.7423,-956.064,0,0
119336.425,95.5576,-954.39,0,0
120638.05,88.8471,-956.294,0,0
121939.675,76.7283,-946.854,0,0
123241,68.8296,-933.905,0,0
124543,63.8627,-919.212,0,0
125845,59.5054,-904.945,0,0
127146,55.8287,-890.681,0,0
128448,53.79,-875.348,0,0
129749,51.9519,-860.609,0,0
131051,50.7076,-846.312,0,0
132353,49.6273,-830.74,0,0
133654,49.8875,-815.171,0,0
134956,52.5942,-800.066,0,0
136258,56.2981,-787.529,0,0
137559,57.4051,-779.197,0,0
138860.775,54.5348,-767.079,0,0
140162.4,54.3384,-752.783,0,0
141464.025,54.2921,-739.167,0,0
142765.65,55.2438,-724.446,0,0
144067.275,58.106,-710.412,0,0
145368.9,60.5092,-698.566,0,0
146670.525,61.5194,-685.577,0,0
147972.15,63.0839,-672.33,0,0
149273.775,63.3545,-659.776,0,0
150575.4,63.3615,-644.445,0,0
151877.025,64.8568,-627.005,0,0
153178.65,68.4865,-608.788,0,0
154480,73.9004,-590.275,0,0
155782,81.9372,-571.303,0,0
157084,92.5722,-553.194,0,0
158385,106.398,-537.791,0,0
159687,118.959,-528.195,0,0
160988,123.734,-516.11,0,0
162290,130.642,-493.897,0,0
163592,146.877,-469.154,0,0
164893,171.514,-447.93,0,0
166195,197.591,-426.136,0,0
167497,241.187,-404.773,0,0
168798,299.593,-399.795,0,0
170100,360.816,-422.424,0,0
171401.375,408.728,-472.622,0,0
172703.0,432.775,-536.008,0,0
174004.625,416.874,-610.694,0,0
175306.25,367.299,-643.607,0,0
176607.875,332.467,-637.67,0,0
177909.5,332.687,-629.907,0,0
179211.125,342.193,-659.273,0,0
180512.75,310.12,-688.443,0,0
181814.375,274.664,-704.621,0,0
183116.0,229.298,-702.058,0,0
184417.625,195.622,-681.946,0,0
185719.25,173.152,-659.987,0,0
187021,155.798,-632.689,0,0
188322,149.369,-606.504,0,0
189624,144.247,-586.75,0,0
190926,137.154,-564.975,0,0
192227,135.494,-540.856,0,0
193529,136.389,-515.529,0,0
194831,141.921,-490.989,0,0
196132,152.496,-468.775,0,0
197434,164.492,-450.909,0,0
198735,174.146,-436.043,0,0
200037,181.049,-417.76,0,0
201339,192.718,-394.934,0,0
202640.35,210.545,-369.935,0,0
203941.975,236.112,-347.462,0,0
205243.6,266.495,-327.597,0,0
206545.225,309.093,-315.463,0,0
207846.85,345.737,-318.105,0,0
209148.475,380.77,-312.636,0,0
210450.1,437.692,-317.306,0,0
211751.725,488.264,-354.241,0,0
213053.35,517.689,-402.512,0,0
214354.975,533.456,-446.513,0,0
215656.6,538.008,-491.434,0,0
216958.225,537.859,-537.625,0,0
218259.85,518.328,-582.264,0,0
219561,483.007,-618.317,0,0
220863,441.961,-623.827,0,0
222165,417.873,-615.195,0,0
223466,408.388,-606.323,0,0
224768,404.246,-603.05,0,0
226070,402.592,-596.421,0,0
227371,412.013,-596.59,0,0
228673,421.428,-606.691,0,0
229974,427.497,-624.964,0,0
231276,427.366,-649.897,0,0
232578,419.108,-675.395,0,0
233879,396.704,-706.324,0,0
235180.95,356.204,-723.156,0,0
236482.575,318.995,-715.305,0,0
237784.2,297.543,-705.977,0,0
239085.825,272.453,-691.558,0,0
240387.45,264.452,-671.608,0,0
241689.075,259.424,-666.897,0,0
242990.7,243.266,-658.584,0,0
244292.325,233.405,-639.967,0,0
245593.95,236.753,-625.994,0,0
246895.575,235.238,-620.855,0,0
248197.2,228.693,-612.115,0,0
249498.825,225.829,-599.044,0,0
250800,227.16,-584.247,0,0
252102,235.348,-570.813,0,0
253404,250.118,-563.073,0,0
254705,264.716,-567.308,0,0
256007,270.459,-577.519,0,0
257309,268.665,-586.053,0,0
258610,263.531,-588.65,0,0
259912,260.927,-590.355,0,0
261213,256.126,-590.405,0,0
262515,253.2,-585.482,0,0
263817,259.253,-582.167,0,0
265118,263.174,-588.989,0,0
266420,260.864,-593.274,0,0
267721.55,261.204,-598.304,0,0
269023.175,254.957,-604.444,0,0
270324.8,250.588,-603.829,0,0
271626.425,254.325,-603.144,0,0
272928.05,263.469,-618.027,0,0
274229.675,252.806,-645.755,0,0
275531.3,223.446,-663.703,0,0
276832.925,186.905,-661.873,0,0
278134.55,157.894,-643.338,0,0
279436.175,143.69,-619.464,0,0
280737.8,139.058,-598.059,0,0
282039.425,138.486,-583.758,0,0
283341,134.544,-569.538,0,0
284643,136.029,-552.039,0,0
285944,143.406,-538.204,0,0
287246,152.429,-531.542,0,0
288548,156.05,-528.806,0,0
289849,156.772,-523.056,0,0
291151,158.775,-514.419,0,0
292452,164.01,-506.282,0,0
293754,170.935,-498.56,0,0
295056,179.512,-492.135,0,0
296357,190.429,-487.002,0,0
297659,203.86,-484.21,0,0
298960.525,219.11,-485.864,0,0
300262.15,234.771,-491.199,0,0
301563.775,252.039,-502.278,0,0
302865.4,268.931,-525.114,0,0
304167.025,268.571,-559.365,0,0
305468.65,252.895,-584.04,0,0
306770.275,232.5,-600.514,0,0
308071.9,210.447,-608.773,0,0
309373.525,188.775,-609.974,0,0
310675.15,171.023,-605.443,0,0
311976.775,157.468,-599.407,0,0
313278.4,145.819,-593.464,0,0
314580,134.609,-585.839,0,0
315882,126.512,-576.114,0,0
317183,121.567,-567.166,0,0
318485,118.01,-559.33,0,0
319787,115.68,-552.11,0,0
321088,114.311,-546.54,0,0
322390,112.59,-541.891,0,0
323691,110.965,-537.552,0,0
324993,109.326,-533.602,0,0
326295,108.173,-529.752,0,0
327596,107.534,-527.284,0,0
328898,105.606,-525.972,0,0
330200,102.753,-524.553,0,0
331501.125,99.1117,-523.179,0,0
332802.75,94.2452,-521.336,0,0
334104.375,88.6065,-518.131,0,0
335406.0,83.3285,-513.688,0,0
336707.625,78.416,-508.327,0,0
338009.25,74.1733,-502.046,0,0
339310.875,70.9583,-495.561,0,0
340612.5,68.3162,-488.922,0,0
341914.125,66.2385,-481.909,0,0
343215.75,65.2999,-474.792,0,0
344517.375,65.5286,-468.003,0,0
345819.0,66.5707,-462.529,0,0
347121,67.2232,-458.495,0,0
348422,66.5063,-454.738,0,0
349724,65.1162,-449.911,0,0
351025,64.1896,-444.06,0,0
352327,64.2769,-437.485,0,0
353629,65.9875,-431.233,0,0
354930,68.7042,-426.471,0,0
356232,71.1341,-423.402,0,0
357534,71.8235,-421.263,0,0
358835,70.8744,-418.095,0,0
360137,70.2285,-412.854,0,0
361438,71.0512,-407.002,0,0
362740.1,73.119,-401.273,0,0
364041.725,76.2658,-396.323,0,0
365343.35,79.9156,-392.376,0,0
366644.975,83.5309,-389.756,0,0
367946.6,86.5465,-387.561,0,0
369248.225,89.577,-385.952,0,0
370549.85,92.1008,-385.371,0,0
371851.475,92.6328,-385.187,0,0
373153.1,91.9405,-383.047,0,0
374454.725,92.5374,-379.511,0,0
375756.35,94.1451,-376.407,0,0
377057.975,95.7458,-373.942,0,0
378359.6,96.8267,-371.112,0,0
379661,98.5989,-367.607,0,0
380963,101.073,-364.522,0,0
382264,103.741,-361.835,0,0
383566,106.507,-359.462,0,0
384868,109.318,-357.2,0,0
386169,111.924,-355.383,0,0
387471,114.387,-353.28,0,0
388773,116.781,-350.427,0,0
390074,120.844,-346.981,0,0
391376,126.062,-345.117,0,0
392677,130.85,-344.09,0,0
393979,135.379,-343.332,0,0
395280.7,139.922,-341.977,0,0
396582.325,146.074,-340.077,0,0
397883.95,155.12,-338.967,0,0
399185.575,166.917,-341.661,0,0
400006.6,174.782,-346.779,0,0