File: Accelerated corrosion test data/2025-10-11_06-00-04/sample_4.csv
Frequency (Hz),Impedance (ohms),Phase (Radians),Temperature (C),Humidity (%)
10000.0,262.273,-11866.6,0,0
11301.625,233.244,-10513.1,0,0
12603.25,211.906,-9431.06,0,0
13904.875,191.988,-8552.17,0,0
15206.5,180.919,-7827.31,0,0
16508.125,183.136,-7212.69,0,0
17809.75,155.878,-6706.52,0,0
19111.375,144.632,-6249.42,0,0
20413.0,140.243,-5849.17,0,0
21714.625,144.92,-5504.5,0,0
23016.25,124.844,-5204.43,0,0
24317.875,115.751,-4919.92,0,0
25619.5,111.834,-4666.77,0,0
26921.1,106.571,-4437.46,0,0
28222.7,120.707,-4233.69,0,0
29524.4,111.647,-4054.88,0,0
30826,97.989,-3883.45,0,0
32127.6,99.1754,-3723.47,0,0
33429.2,89.6275,-3582.75,0,0
34730.9,84.6623,-3444.25,0,0
36032.5,81.4597,-3316.86,0,0
37334.1,79.7325,-3198.1,0,0
38635.7,76.8382,-3086.51,0,0
39937.4,76.8222,-2980.61,0,0
41239,79.7367,-2886.76,0,0
42540.6,78.5933,-2798.43,0,0
43842.225,73.3308,-2714.93,0,0
45143.85,71.1936,-2633.99,0,0
46445.475,69.9554,-2556.87,0,0
47747.1,69.8535,-2487.26,0,0
49048.725,65.9908,-2418.08,0,0
50350.35,64.3585,-2350.58,0,0
51651.975,63.6108,-2285.9,0,0
52953.6,65.3005,-2223.18,0,0
54255.225,73.4851,-2166.75,0,0
55556.85,71.9264,-2123.75,0,0
56858.475,65.5601,-2069.84,0,0
58160.1,66.3686,-2017.53,0,0
59461.7,70.6174,-1967.25,0,0
60763.3,79.4211,-1929.03,0,0
62065,69.7784,-1895.81,0,0
63366.6,64.1029,-1850.63,0,0
64668.2,64.5011,-1807.35,0,0
65969.8,66.4139,-1766.72,0,0
67271.5,70.2761,-1730.58,0,0
68573.1,73.5632,-1701.73,0,0
69874.7,66.1201,-1671.63,0,0
71176.3,64.5336,-1637.39,0,0
72478,59.0432,-1606.09,0,0
73779.6,57.6907,-1569.64,0,0
75081.2,59.6259,-1536.88,0,0
76382.825,62.1213,-1508.02,0,0
77684.45,64.8318,-1480.42,0,0
78986.075,63.7525,-1457.94,0,0
80287.7,60.6803,-1431.06,0,0
81589.325,60.1191,-1405.07,0,0
82890.95,58.8683,-1380.06,0,0
84192.575,57.6772,-1355.18,0,0
85494.2,56.9291,-1330.87,0,0
86795.825,56.166,-1307.34,0,0
88097.45,54.8666,-1284.83,0,0
89399.075,53.3974,-1260.56,0,0
90700.7,53.1596,-1237.44,0,0
92002.3,53.5351,-1214.36,0,0
93303.9,54.7889,-1193.6,0,0
94605.6,53.4436,-1173.27,0,0
95907.2,52.8297,-1150.76,0,0
97208.8,53.6915,-1129.06,0,0
98510.4,55.0514,-1107.6,0,0
99812.1,57.582,-1086.92,0,0
101114,61.8006,-1068.38,0,0
102415,61.1654,-1054.04,0,0
103717,58.1088,-1031.39,0,0
105019,61.89,-1007.76,0,0
106320.175,68.3936,-987.415,0,0
107621.8,75.177,-969.554,0,0
108923.425,83.4763,-952.854,0,0
110225.05,91.648,-940.263,0,0
111526.675,97.7029,-929.526,0,0
112828.3,102.871,-919.615,0,0
114129.925,106.277,-910.971,0,0
115431.55,108.106,-902.778,0,0
116733.175,107.65,-894.43,0,0
118034.8,105.407,-883.644,0,0
119336.425,106.372,-869.661,0,0
120638.05,111.494,-864.467,0,0
121939.675,104.698,-858.174,0,0
123241,99.9438,-845.889,0,0
124543,96.821,-833.347,0,0
125845,94.7017,-821.042,0,0
127146,91.3408,-809.958,0,0
128448,86.5855,-798.231,0,0
129749,80.216,-783.542,0,0
131051,75.4038,-765.883,0,0
132353,72.8043,-747.223,0,0
133654,72.0136,-728.269,0,0
134956,72.6991,-709.39,0,0
136258,74.8035,-690.984,0,0
137559,77.5931,-673.728,0,0
138860.775,79.4751,-656,0,0
140162.4,82.7629,-636.987,0,0
141464.025,87.7618,-618.052,0,0
142765.65,93.7069,-599.778,0,0
144067.275,100.407,-581.475,0,0
145368.9,108.135,-562.903,0,0
146670.525,117.485,-544.25,0,0
147972.15,128.393,-526.253,0,0
149273.775,140.966,-508.13,0,0
150575.4,155.92,-490.468,0,0
151877.025,174.622,-474.205,0,0
153178.65,196.641,-462.147,0,0
154480,218.251,-456.954,0,0
155782,235.052,-453.116,0,0
157084,250.561,-451.292,0,0
158385,265.471,-445.676,0,0
159687,286.062,-443.055,0,0
160988,304.144,-450.778,0,0
162290,310.413,-456.925,0,0
163592,315.351,-456.196,0,0
164893,325.016,-450.204,0,0
166195,339.801,-443.976,0,0
167497,365.701,-442.644,0,0
168798,392.881,-458.993,0,0
170100,409.13,-487.451,0,0
171401.375,406.034,-525.43,0,0
172703.0,381.185,-550.688,0,0
174004.625,348.028,-556.269,0,0
175306.25,320.537,-544.805,0,0
176607.875,302.731,-523.222,0,0
177909.5,296.239,-499.728,0,0
179211.125,295.723,-478.916,0,0
180512.75,299.211,-460.019,0,0
181814.375,303.416,-443.323,0,0
183116.0,306.605,-426.164,0,0
184417.625,311.093,-405.359,0,0
185719.25,319.406,-381.75,0,0
187021,332.52,-356.374,0,0
188322,350.993,-329.832,0,0
189624,376.216,-302.657,0,0
190926,410.308,-276.79,0,0
192227,453.091,-255.668,0,0
193529,503.475,-242.573,0,0
194831,558.528,-238.73,0,0
196132,616.749,-242.93,0,0
197434,681.527,-256.593,0,0
198735,752.403,-288.011,0,0
200037,820.036,-345.802,0,0
201339,867.026,-426.42,0,0
202640.35,884.981,-514.083,0,0
203941.975,882.077,-594.625,0,0
205243.6,862.924,-668.891,0,0
206545.225,833.128,-731.071,0,0
207846.85,797.301,-792.408,0,0
209148.475,739.387,-838.753,0,0
210450.1,681.637,-859.782,0,0
211751.725,632.142,-865.809,0,0
213053.35,594.476,-862.565,0,0
214354.975,567.047,-856.767,0,0
215656.6,552.273,-856.421,0,0
216958.225,532.81,-865.66,0,0
218259.85,510.785,-870.517,0,0
219561,490.058,-875.394,0,0
220863,467.641,-881.309,0,0
222165,443.785,-884.454,0,0
223466,420.497,-885.129,0,0
224768,398.057,-885.75,0,0
226070,372.701,-886.748,0,0
227371,344.393,-882.763,0,0
228673,316.078,-873.124,0,0
229974,291.798,-856.982,0,0
231276,273.521,-838.94,0,0
232578,259.622,-821.199,0,0
233879,248.908,-803.873,0,0
235180.95,240.963,-787.782,0,0
236482.575,234.899,-773.642,0,0
237784.2,229.578,-759.243,0,0
239085.825,227.838,-746.175,0,0
240387.45,226.872,-736.556,0,0
241689.075,225.263,-729.117,0,0
242990.7,222.112,-723.314,0,0
244292.325,217.04,-717.526,0,0
245593.95,210.329,-709.82,0,0
246895.575,204.9,-699.913,0,0
248197.2,202.261,-689.564,0,0
249498.825,199.795,-681.314,0,0
250800,197.065,-673.263,0,0
252102,193.357,-665.7,0,0
253404,187.299,-656.191,0,0
254705,182.801,-642.24,0,0
256007,180.897,-626.196,0,0
257309,184.071,-607.836,0,0
258610,192.903,-590.106,0,0
259912,207.445,-575.131,0,0
261213,226.703,-565.802,0,0
262515,246.97,-563.965,0,0
263817,267.659,-567.54,0,0
265118,286.182,-579.974,0,0
266420,298.678,-597.602,0,0
267721.55,303.071,-619.087,0,0
269023.175,299.755,-639.982,0,0
270324.8,286.566,-656.937,0,0
271626.425,274.159,-663.622,0,0
272928.05,264.914,-671.234,0,0
274229.675,253.075,-679.838,0,0
275531.3,235.596,-686.79,0,0
276832.925,214.353,-685.95,0,0
278134.55,195.383,-676.116,0,0
279436.175,184.476,-660.459,0,0
280737.8,182.948,-648.194,0,0
282039.425,181.599,-641.138,0,0
283341,180.432,-633.68,0,0
284643,181.152,-630.455,0,0
285944,178.245,-629.112,0,0
287246,171.339,-625.395,0,0
288548,165.536,-615.943,0,0
289849,166.452,-602.14,0,0
291151,176.347,-592.762,0,0
292452,188.9,-592.661,0,0
293754,197.853,-601.312,0,0
295056,198.435,-614.192,0,0
296357,190.376,-624.887,0,0
297659,178.577,-628.857,0,0
298960.525,168.517,-628.3,0,0
300262.15,159.965,-626.484,0,0
301563.775,151.732,-623.769,0,0
302865.4,144.355,-619.343,0,0
304167.025,137.951,-614.709,0,0
305468.65,132.26,-609.016,0,0
306770.275,128.087,-602.783,0,0
308071.9,125.846,-597.057,0,0
309373.525,124.213,-593.122,0,0
310675.15,121.517,-590.226,0,0
311976.775,117.876,-586.508,0,0
313278.4,114.748,-582.093,0,0
314580,112.582,-577.251,0,0
315882,111.383,-573.332,0,0
317183,110.388,-570.318,0,0
318485,108.892,-568.416,0,0
319787,106.713,-567.329,0,0
321088,102.695,-566.662,0,0
322390,96.4868,-564.881,0,0
323691,89.3947,-559.935,0,0
324993,84.6964,-552.633,0,0
326295,81.9733,-545.95,0,0
327596,79.4579,-539.47,0,0
328898,77.5711,-532.337,0,0
330200,77.445,-525.206,0,0
331501.125,78.7162,-519.44,0,0
332802.75,79.9752,-515.419,0,0
334104.375,80.0587,-512.537,0,0
335406.0,78.8962,-509.424,0,0
336707.625,76.8614,-505.437,0,0
338009.25,75.2823,-499.732,0,0
339310.875,75.0023,-493.477,0,0
340612.5,76.3151,-487.143,0,0
341914.125,79.2697,-481.405,0,0
343215.75,83.6439,-477.868,0,0
344517.375,87.3644,-476.975,0,0
345819.0,89.1344,-477.424,0,0
347121,89.1384,-477.871,0,0
348422,87.8547,-477.511,0,0
349724,85.9452,-476.366,0,0
351025,83.8552,-474.073,0,0
352327,82.0185,-471.1,0,0
353629,80.8391,-467.291,0,0
354930,81.0253,-463.616,0,0
356232,81.2999,-461.25,0,0
357534,80.7723,-459.183,0,0
358835,79.269,-456.666,0,0
360137,78.0323,-452.832,0,0
361438,77.7834,-448.515,0,0
362740.1,78.4898,-444.483,0,0
364041.725,79.4144,-441.365,0,0
365343.35,79.7199,-438.404,0,0
366644.975,79.8172,-434.558,0,0
367946.6,81.1366,-429.832,0,0
369248.225,84.0614,-425.324,0,0
370549.85,88.6101,-422.099,0,0
371851.475,93.8497,-420.983,0,0
373153.1,98.5746,-422.488,0,0
374454.725,100.909,-425.891,0,0
375756.35,100.542,-428.682,0,0
377057.975,99.3575,-429.933,0,0
378359.6,98.4972,-430.578,0,0
379661,97.1363,-431.399,0,0
380963,95.4112,-431.253,0,0
382264,94.1591,-430.339,0,0
383566,94.6525,-430.386,0,0
384868,93.4775,-433.236,0,0
386169,88.8354,-435.149,0,0
387471,82.8235,-433.808,0,0
388773,78.5941,-429.506,0,0
390074,77.5515,-424.784,0,0
391376,78.3697,-422.688,0,0
392677,77.6326,-423.371,0,0
393979,73.5643,-423.357,0,0
395280.7,68.8558,-420.807,0,0
396582.325,65.1995,-416.469,0,0
397883.95,62.8151,-411.713,0,0
399185.575,61.1282,-406.889,0,0
400006.6,60.4387,-403.764,0,0