File: Accelerated corrosion test data/2025-10-11_06-00-04/sample_1.csv
Frequency (Hz),Impedance (ohms),Phase (Radians),Temperature (C),Humidity (%)
10000.0,238.847,-12188,0,0
11301.625,213.066,-10795.8,0,0
12603.25,194.25,-9697.15,0,0
13904.875,180.454,-8775.1,0,0
15206.5,182.027,-8042.55,0,0
16508.125,154.596,-7418.64,0,0
17809.75,145.83,-6884.74,0,0
19111.375,135.129,-6415.85,0,0
20413.0,154.21,-5973.93,0,0
21714.625,136.947,-5657.84,0,0
23016.25,121.962,-5354.21,0,0
24317.875,111.937,-5062.58,0,0
25619.5,103.948,-4799.01,0,0
26921.1,113.692,-4550.53,0,0
28222.7,109.776,-4347.33,0,0
29524.4,106.641,-4180.47,0,0
30826,100.46,-3994,0,0
32127.6,97.7064,-3835.55,0,0
33429.2,88.3777,-3693.01,0,0
34730.9,81.5841,-3550.81,0,0
36032.5,77.4669,-3420.05,0,0
37334.1,74.9888,-3297.93,0,0
38635.7,72.5644,-3184.43,0,0
39937.4,70.6407,-3078.01,0,0
41239,71.9655,-2979.17,0,0
42540.6,70.3279,-2887.02,0,0
43842.225,67.5382,-2800.34,0,0
45143.85,68.3076,-2718.96,0,0
46445.475,65.1867,-2642.72,0,0
47747.1,63.6813,-2568.72,0,0
49048.725,61.3357,-2498.85,0,0
50350.35,59.3741,-2432.56,0,0
51651.975,58.5705,-2368.85,0,0
52953.6,57.6203,-2308.31,0,0
54255.225,56.5913,-2251.19,0,0
55556.85,55.8366,-2195.75,0,0
56858.475,54.8595,-2142.91,0,0
58160.1,54.5139,-2092.34,0,0
59461.7,54.3331,-2044.46,0,0
60763.3,54.4165,-1998.58,0,0
62065,53.055,-1954.76,0,0
63366.6,52.2993,-1911.27,0,0
64668.2,52.9067,-1869.28,0,0
65969.8,55.1045,-1831.49,0,0
67271.5,53.6346,-1794.95,0,0
68573.1,53.2056,-1759.53,0,0
69874.7,52.1097,-1725.63,0,0
71176.3,50.3381,-1691.06,0,0
72478,48.4402,-1657.39,0,0
73779.6,48.0893,-1624.05,0,0
75081.2,48.4968,-1591.8,0,0
76382.825,49.2421,-1560.72,0,0
77684.45,50.1967,-1531.51,0,0
78986.075,51.7995,-1503.88,0,0
80287.7,51.1781,-1477.6,0,0
81589.325,50.6537,-1449.65,0,0
82890.95,51.2326,-1422.85,0,0
84192.575,52.789,-1396.77,0,0
85494.2,55.0821,-1372.09,0,0
86795.825,56.1002,-1349.14,0,0
88097.45,56.2884,-1325.92,0,0
89399.075,58.1168,-1301.24,0,0
90700.7,61.5616,-1277.98,0,0
92002.3,67.9772,-1257.01,0,0
93303.9,74.9086,-1240.3,0,0
94605.6,73.4816,-1233.05,0,0
95907.2,66.906,-1214.42,0,0
97208.8,64.5874,-1193.87,0,0
98510.4,64.2755,-1173.17,0,0
99812.1,63.1538,-1153.46,0,0
101114,63.4388,-1133.46,0,0
102415,63.2012,-1112.08,0,0
103717,68.2828,-1090.71,0,0
105019,75.1168,-1073.35,0,0
106320.175,81.5187,-1057.14,0,0
107621.8,87.9948,-1044.8,0,0
108923.425,92.5095,-1034.28,0,0
110225.05,94.0484,-1026.19,0,0
111526.675,93.9957,-1013.71,0,0
112828.3,95.8277,-1004.09,0,0
114129.925,94.8256,-996.18,0,0
115431.55,91.0145,-986.441,0,0
116733.175,86.1797,-973.861,0,0
118034.8,82.2677,-959.174,0,0
119336.425,80.8739,-943.576,0,0
120638.05,81.5348,-929.446,0,0
121939.675,80.4953,-916.84,0,0
123241,79.0931,-902.632,0,0
124543,78.8566,-887.522,0,0
125845,79.7129,-872.883,0,0
127146,81.0946,-858.594,0,0
128448,83.0949,-844.278,0,0
129749,85.5705,-830.209,0,0
131051,90.5774,-817.092,0,0
132353,94.6779,-806.787,0,0
133654,97.3691,-796.34,0,0
134956,99.7287,-785.953,0,0
136258,102.577,-774.784,0,0
137559,107.408,-765.061,0,0
138860.775,109.529,-758.836,0,0
140162.4,109.452,-750.2,0,0
141464.025,109.27,-739.98,0,0
142765.65,110.149,-729.107,0,0
144067.275,111.317,-717.791,0,0
145368.9,113.935,-706.653,0,0
146670.525,116.532,-696.482,0,0
147972.15,118.885,-687.339,0,0
149273.775,121.345,-676.717,0,0
150575.4,122.769,-668.785,0,0
151877.025,121.677,-656.938,0,0
153178.65,121.804,-642.233,0,0
154480,125.936,-625.583,0,0
155782,133.655,-609.048,0,0
157084,145.376,-594.417,0,0
158385,158.313,-585.028,0,0
159687,168.513,-574.45,0,0
160988,186.513,-564.308,0,0
162290,205.161,-564.864,0,0
163592,216.916,-566.74,0,0
164893,228.46,-569.563,0,0
166195,240.81,-575.894,0,0
167497,245.965,-587.776,0,0
168798,243.755,-599.113,0,0
170100,234.366,-604.627,0,0
171401.375,226.73,-601.779,0,0
172703.0,221.609,-597.525,0,0
174004.625,218.167,-591.822,0,0
175306.25,217.111,-585.863,0,0
176607.875,217.885,-582.09,0,0
177909.5,216.633,-579.327,0,0
179211.125,212.421,-577.518,0,0
180512.75,206.477,-573.572,0,0
181814.375,199.148,-565.585,0,0
183116.0,192.966,-555.562,0,0
184417.625,187.027,-541.49,0,0
185719.25,185.754,-524.571,0,0
187021,187.888,-508.845,0,0
188322,191.566,-494.377,0,0
189624,195.02,-480.028,0,0
190926,200.003,-464.541,0,0
192227,206.047,-448.049,0,0
193529,215.096,-431.41,0,0
194831,225.307,-414.763,0,0
196132,238.31,-397.296,0,0
197434,254.835,-379.255,0,0
198735,275.814,-362.924,0,0
200037,297.462,-349.254,0,0
201339,323.383,-332.614,0,0
202640.35,359.545,-318.028,0,0
203941.975,402.524,-313.12,0,0
205243.6,454.522,-321.747,0,0
206545.225,497.621,-351.202,0,0
207846.85,526.22,-390.754,0,0
209148.475,538.487,-429.969,0,0
210450.1,536.535,-464.49,0,0
211751.725,527.282,-482.704,0,0
213053.35,525.565,-486.738,0,0
214354.975,537.64,-495.559,0,0
215656.6,549.12,-509.333,0,0
216958.225,557.381,-525.415,0,0
218259.85,571.851,-538.172,0,0
219561,587.742,-557.787,0,0
220863,606.212,-584.142,0,0
222165,624.232,-622.229,0,0
223466,628.685,-672.727,0,0
224768,618.143,-721.745,0,0
226070,597.414,-768.254,0,0
227371,565.378,-811.907,0,0
228673,520.428,-844.06,0,0
229974,472.459,-859.184,0,0
231276,429.35,-862.42,0,0
232578,394.024,-857.77,0,0
233879,366.379,-852.334,0,0
235180.95,340.838,-847.719,0,0
236482.575,316.257,-841.917,0,0
237784.2,292.911,-833.776,0,0
239085.825,272.429,-824.802,0,0
240387.45,253.009,-813.723,0,0
241689.075,236.24,-802.315,0,0
242990.7,221.953,-790.025,0,0
244292.325,209.465,-778.519,0,0
245593.95,197.595,-767.51,0,0
246895.575,186.199,-755.858,0,0
248197.2,176.26,-743.152,0,0
249498.825,168.055,-730.572,0,0
250800,161.171,-718.428,0,0
252102,154.879,-706.384,0,0
253404,149.418,-693.924,0,0
254705,145.358,-680.928,0,0
256007,143.492,-668.775,0,0
257309,142.164,-657.203,0,0
258610,141.633,-645.62,0,0
259912,143.619,-633.835,0,0
261213,147.902,-624.176,0,0
262515,153.071,-616.937,0,0
263817,158.573,-611.793,0,0
265118,164.438,-608.69,0,0
266420,171.017,-609.682,0,0
267721.55,173.217,-615.975,0,0
269023.175,167.946,-622.199,0,0
270324.8,157.994,-622.988,0,0
271626.425,148.441,-617.859,0,0
272928.05,142.184,-609.312,0,0
274229.675,139.968,-600.159,0,0
275531.3,139.908,-592.75,0,0
276832.925,140.775,-586.259,0,0
278134.55,143.222,-581.471,0,0
279436.175,145.034,-578.872,0,0
280737.8,145.712,-577.683,0,0
282039.425,144.757,-577.242,0,0
283341,141.594,-575.856,0,0
284643,137.831,-572.659,0,0
285944,134.796,-568.386,0,0
287246,131.232,-563.104,0,0
288548,129.177,-555.268,0,0
289849,131.254,-547.738,0,0
291151,134.129,-543.625,0,0
292452,135.57,-541.086,0,0
293754,134.567,-538.43,0,0
295056,133.206,-532.077,0,0
296357,136.124,-524.463,0,0
297659,141.197,-519.688,0,0
298960.525,146.342,-516.369,0,0
300262.15,151.689,-514.37,0,0
301563.775,157.264,-512.914,0,0
302865.4,164.312,-513.6,0,0
304167.025,169.909,-517.292,0,0
305468.65,173.876,-521.858,0,0
306770.275,176.971,-527.264,0,0
308071.9,178.17,-534.563,0,0
309373.525,176.254,-541.564,0,0
310675.15,173.673,-547.19,0,0
311976.775,169.845,-553.812,0,0
313278.4,162.936,-559.634,0,0
314580,154.606,-562.518,0,0
315882,146.976,-563.613,0,0
317183,139.193,-563.931,0,0
318485,131.303,-562.948,0,0
319787,123.582,-560.563,0,0
321088,116.506,-556.767,0,0
322390,110.592,-552.095,0,0
323691,105.903,-546.7,0,0
324993,102.913,-541.155,0,0
326295,101.042,-536.647,0,0
327596,99.5578,-532.869,0,0
328898,98.3813,-530.031,0,0
330200,96.9369,-528.05,0,0
331501.125,94.5855,-526.637,0,0
332802.75,91.349,-524.856,0,0
334104.375,87.8831,-522.586,0,0
335406.0,84.1328,-519.918,0,0
336707.625,80.4513,-516.599,0,0
338009.25,77.1282,-512.758,0,0
339310.875,74.0941,-508.801,0,0
340612.5,71.5074,-504.586,0,0
341914.125,69.2564,-500.46,0,0
343215.75,67.106,-496.369,0,0
344517.375,65.0391,-492.266,0,0
345819.0,62.9564,-488.03,0,0
347121,61.184,-483.485,0,0
348422,59.6943,-478.724,0,0
349724,58.7528,-474.087,0,0
351025,58.0745,-469.537,0,0
352327,57.7127,-465.266,0,0
353629,57.3561,-461.211,0,0
354930,57.0752,-457.232,0,0
356232,56.8731,-453.169,0,0
357534,56.973,-449.253,0,0
358835,57.2035,-445.572,0,0
360137,57.3446,-441.924,0,0
361438,57.7137,-438.392,0,0
362740.1,57.9305,-435.062,0,0
364041.725,58.3257,-431.52,0,0
365343.35,58.8714,-428.168,0,0
366644.975,59.2098,-424.843,0,0
367946.6,59.4983,-421.286,0,0
369248.225,60.001,-416.96,0,0
370549.85,61.8991,-412.316,0,0
371851.475,65.0089,-408.559,0,0
373153.1,68.5394,-406.106,0,0
374454.725,71.9576,-404.704,0,0
375756.35,74.7225,-404.408,0,0
377057.975,76.6645,-404.232,0,0
378359.6,78.3969,-404.247,0,0
379661,79.6522,-404.425,0,0
380963,81.1737,-404.433,0,0
382264,82.7852,-405.993,0,0
383566,82.5161,-408.394,0,0
384868,80.5684,-410.223,0,0
386169,77.8542,-410.853,0,0
387471,74.7059,-410.376,0,0
388773,71.9309,-408.538,0,0
390074,70.1823,-406.409,0,0
391376,68.8925,-404.626,0,0
392677,67.3416,-403.177,0,0
393979,65.3491,-401.616,0,0
395280.7,62.9998,-399.338,0,0
396582.325,60.9321,-396.27,0,0
397883.95,59.5347,-392.925,0,0
399185.575,58.4599,-389.561,0,0
400006.6,57.8602,-387.382,0,0