File: Accelerated corrosion test data/2025-10-11_06-00-04/sample_7.csv
Frequency (Hz),Impedance (ohms),Phase (Radians),Temperature (C),Humidity (%)
10000.0,273.564,-12090.6,0,0
11301.625,246.928,-10696.6,0,0
12603.25,257.681,-9639.92,0,0
13904.875,210.475,-8749.8,0,0
15206.5,194.357,-8014.42,0,0
16508.125,171.498,-7373.14,0,0
17809.75,171.437,-6817.8,0,0
19111.375,180.826,-6373.85,0,0
20413.0,168.13,-5983.65,0,0
21714.625,155.688,-5641.25,0,0
23016.25,130.377,-5317.47,0,0
24317.875,123.09,-5024.77,0,0
25619.5,119.276,-4760.56,0,0
26921.1,123.999,-4515.4,0,0
28222.7,181.07,-4313.44,0,0
29524.4,137.032,-4169.19,0,0
30826,133.967,-3987.02,0,0
32127.6,117.867,-3841.93,0,0
33429.2,101.934,-3690.73,0,0
34730.9,92.8253,-3545.89,0,0
36032.5,88.8929,-3412.01,0,0
37334.1,86.519,-3288.76,0,0
38635.7,86.8704,-3171.58,0,0
39937.4,97.6018,-3071.3,0,0
41239,86.8324,-2983.76,0,0
42540.6,80.405,-2887.68,0,0
43842.225,79.5246,-2798.97,0,0
45143.85,80.6322,-2721.32,0,0
46445.475,77.5361,-2649.38,0,0
47747.1,71.177,-2572.83,0,0
49048.725,68.4084,-2502.57,0,0
50350.35,66.3284,-2435.52,0,0
51651.975,64.7043,-2371.93,0,0
52953.6,63.8056,-2311.33,0,0
54255.225,62.5626,-2254.55,0,0
55556.85,61.4905,-2199.76,0,0
56858.475,60.5789,-2147.42,0,0
58160.1,59.8994,-2096.95,0,0
59461.7,60.2604,-2049.56,0,0
60763.3,59.4507,-2005.79,0,0
62065,57.3592,-1962.5,0,0
63366.6,56.2522,-1919.57,0,0
64668.2,55.4148,-1879.06,0,0
65969.8,55.3456,-1840.48,0,0
67271.5,53.6915,-1803.64,0,0
68573.1,52.5786,-1766.94,0,0
69874.7,52.1194,-1731.61,0,0
71176.3,51.8731,-1698.15,0,0
72478,50.6383,-1665.9,0,0
73779.6,49.8896,-1634.03,0,0
75081.2,49.3892,-1603.2,0,0
76382.825,48.7738,-1573.37,0,0
77684.45,48.5697,-1544.6,0,0
78986.075,48.1786,-1516.61,0,0
80287.7,48.1037,-1489.47,0,0
81589.325,47.7408,-1463.11,0,0
82890.95,47.5609,-1437.52,0,0
84192.575,47.5762,-1412.38,0,0
85494.2,47.8205,-1388.3,0,0
86795.825,47.7482,-1364.86,0,0
88097.45,47.9443,-1342.18,0,0
89399.075,47.7062,-1319.79,0,0
90700.7,47.9414,-1297.63,0,0
92002.3,48.4393,-1276.06,0,0
93303.9,49.0008,-1255.26,0,0
94605.6,50.5083,-1235.42,0,0
95907.2,50.5579,-1217.1,0,0
97208.8,50.0164,-1197.68,0,0
98510.4,50.9668,-1178.31,0,0
99812.1,50.5496,-1159.49,0,0
101114,52.0993,-1140.6,0,0
102415,53.6702,-1122.46,0,0
103717,56.4512,-1105.87,0,0
105019,57.3082,-1090.7,0,0
106320.175,57.0239,-1074.43,0,0
107621.8,58.0794,-1058.29,0,0
108923.425,59.0837,-1042.18,0,0
110225.05,59.518,-1025.55,0,0
111526.675,62.5613,-1008.67,0,0
112828.3,66.8973,-992.687,0,0
114129.925,71.8367,-978.745,0,0
115431.55,77.5287,-965.726,0,0
116733.175,85.3186,-956.992,0,0
118034.8,88.7352,-951.088,0,0
119336.425,91.5027,-948.142,0,0
120638.05,85.3449,-947.202,0,0
121939.675,75.8125,-936.975,0,0
123241,68.5702,-924.208,0,0
124543,64.5574,-909.533,0,0
125845,60.5948,-895.936,0,0
127146,57.4119,-880.957,0,0
128448,55.8949,-866.291,0,0
129749,54.5318,-851.769,0,0
131051,53.3853,-837.339,0,0
132353,52.8004,-822.047,0,0
133654,53.3573,-806.477,0,0
134956,56.1449,-791.46,0,0
136258,61.379,-778.57,0,0
137559,62.2835,-770.759,0,0
138860.775,60.4203,-758.881,0,0
140162.4,60.9228,-745.453,0,0
141464.025,60.9638,-732.314,0,0
142765.65,62.2504,-718.292,0,0
144067.275,64.8028,-705.418,0,0
145368.9,66.2491,-692.99,0,0
146670.525,67.2756,-679.868,0,0
147972.15,69.12,-666.617,0,0
149273.775,69.5467,-653.559,0,0
150575.4,70.4383,-637.628,0,0
151877.025,73.0965,-620.254,0,0
153178.65,78.0921,-602.436,0,0
154480,84.9521,-584.443,0,0
155782,94.345,-567.035,0,0
157084,106.274,-551.345,0,0
158385,119.605,-539.207,0,0
159687,128.239,-531.051,0,0
160988,131.371,-516.229,0,0
162290,141.697,-492.17,0,0
163592,161.208,-468.818,0,0
164893,187.537,-450.819,0,0
166195,217.006,-431.948,0,0
167497,262.415,-419.521,0,0
168798,317.501,-425.749,0,0
170100,364.754,-456.171,0,0
171401.375,397.856,-503.385,0,0
172703.0,411.212,-564.162,0,0
174004.625,383.879,-619.41,0,0
175306.25,341.669,-634.859,0,0
176607.875,321.302,-624.902,0,0
177909.5,331.948,-626.513,0,0
179211.125,329.954,-663.805,0,0
180512.75,299.613,-685.457,0,0
181814.375,259.08,-700.461,0,0
183116.0,216.45,-689.407,0,0
184417.625,187.179,-667.279,0,0
185719.25,168.489,-644.259,0,0
187021,154.806,-617.152,0,0
188322,151.851,-592.49,0,0
189624,146.093,-575.345,0,0
190926,139.796,-553.08,0,0
192227,138.9,-528.318,0,0
193529,141.676,-503.208,0,0
194831,148.372,-478.566,0,0
196132,159.937,-456.819,0,0
197434,172.787,-438.039,0,0
198735,184.474,-420.355,0,0
200037,197.689,-400.463,0,0
201339,215.683,-379.581,0,0
202640.35,240.655,-359.086,0,0
203941.975,271.133,-343.08,0,0
205243.6,307.261,-332.932,0,0
206545.225,347.842,-335.852,0,0
207846.85,375.996,-346.178,0,0
209148.475,409.106,-345.36,0,0
210450.1,460.62,-361.705,0,0
211751.725,496.582,-408.079,0,0
213053.35,510.128,-457.474,0,0
214354.975,508.011,-499.608,0,0
215656.6,496.345,-532.961,0,0
216958.225,487.577,-565.08,0,0
218259.85,463.043,-591.988,0,0
219561,431.785,-607.797,0,0
220863,402.607,-604.243,0,0
222165,386.93,-590.493,0,0
223466,384.362,-578.335,0,0
224768,386.464,-570.516,0,0
226070,397.866,-561.584,0,0
227371,415.717,-566.115,0,0
228673,434.199,-582.333,0,0
229974,443.145,-608.582,0,0
231276,441.865,-642.801,0,0
232578,428.791,-673.81,0,0
233879,401.481,-705.033,0,0
235180.95,358.47,-719.615,0,0
236482.575,323.398,-710.969,0,0
237784.2,296.887,-703.002,0,0
239085.825,272.102,-682.711,0,0
240387.45,269.159,-663.052,0,0
241689.075,263.23,-658.39,0,0
242990.7,249.426,-648.048,0,0
244292.325,242.067,-629.037,0,0
245593.95,248.192,-614.417,0,0
246895.575,252.111,-609.621,0,0
248197.2,252.907,-604.353,0,0
249498.825,255.45,-598.879,0,0
250800,259.364,-595.986,0,0
252102,263.977,-595.484,0,0
253404,267.108,-600.106,0,0
254705,264.214,-607.058,0,0
256007,256.352,-610.662,0,0
257309,246.704,-609.809,0,0
258610,238.422,-603.425,0,0
259912,233.914,-596.293,0,0
261213,231.27,-585.914,0,0
262515,236.126,-574.684,0,0
263817,247.634,-571.043,0,0
265118,255.346,-576.02,0,0
266420,258.221,-579.836,0,0
267721.55,262.314,-586.053,0,0
269023.175,261.724,-593.502,0,0
270324.8,262.187,-597.922,0,0
271626.425,266.947,-606.278,0,0
272928.05,270.064,-628.875,0,0
274229.675,251.181,-657.365,0,0
275531.3,215.058,-670.752,0,0
276832.925,178.461,-662.704,0,0
278134.55,152.448,-640.864,0,0
279436.175,140.859,-616.875,0,0
280737.8,137.554,-596.371,0,0
282039.425,137.237,-583.079,0,0
283341,133.632,-569.504,0,0
284643,134.401,-553.408,0,0
285944,139.646,-540.2,0,0
287246,145.873,-531.666,0,0
288548,149.31,-524.759,0,0
289849,152.989,-515.994,0,0
291151,159.355,-507.07,0,0
292452,167.228,-500.901,0,0
293754,175.25,-495.892,0,0
295056,183.881,-491.189,0,0
296357,194.847,-487.629,0,0
297659,208.454,-487.024,0,0
298960.525,222.046,-490.978,0,0
300262.15,235.804,-497.907,0,0
301563.775,250.629,-510.197,0,0
302865.4,263.141,-533.782,0,0
304167.025,258.986,-563.523,0,0
305468.65,243.559,-585.412,0,0
306770.275,222.947,-599.483,0,0
308071.9,201.504,-604.867,0,0
309373.525,181.752,-604.159,0,0
310675.15,165.914,-598.813,0,0
311976.775,153.869,-592.568,0,0
313278.4,143.578,-586.037,0,0
314580,134.514,-578.443,0,0
315882,128.145,-569.718,0,0
317183,124.34,-562.206,0,0
318485,121.064,-555.885,0,0
319787,118.701,-549.831,0,0
321088,117.19,-545.048,0,0
322390,115.492,-541.523,0,0
323691,112.924,-538.586,0,0
324993,109.953,-534.911,0,0
326295,107.875,-531.391,0,0
327596,105.558,-528.711,0,0
328898,102.589,-526.115,0,0
330200,99.4492,-523.329,0,0
331501.125,96.0627,-520.643,0,0
332802.75,92.0124,-517.959,0,0
334104.375,87.1184,-514.389,0,0
335406.0,82.4905,-509.679,0,0
336707.625,78.1174,-504.084,0,0
338009.25,74.6459,-497.735,0,0
339310.875,72.0266,-491.182,0,0
340612.5,70.1033,-484.595,0,0
341914.125,68.8131,-477.964,0,0
343215.75,68.4082,-471.419,0,0
344517.375,68.8553,-465.409,0,0
345819.0,69.604,-460.274,0,0
347121,70.2503,-456.005,0,0
348422,70.2442,-452.102,0,0
349724,69.6665,-447.547,0,0
351025,69.2754,-442.546,0,0
352327,69.9677,-436.833,0,0
353629,71.6284,-431.852,0,0
354930,73.6595,-427.813,0,0
356232,75.6444,-425.131,0,0
357534,75.8595,-422.901,0,0
358835,75.206,-419.508,0,0
360137,75.1628,-414.721,0,0
361438,76.3289,-409.629,0,0
362740.1,78.595,-405.219,0,0
364041.725,81.0349,-401.435,0,0
365343.35,83.9354,-398.185,0,0
366644.975,86.6758,-396.172,0,0
367946.6,88.8749,-394.432,0,0
369248.225,90.9391,-393.126,0,0
370549.85,92.0561,-392.9,0,0
371851.475,90.9827,-391.804,0,0
373153.1,90.1434,-388.467,0,0
374454.725,90.6727,-384.544,0,0
375756.35,91.995,-380.876,0,0
377057.975,93.5033,-377.784,0,0
378359.6,95.0504,-374.205,0,0
379661,97.5229,-370.726,0,0
380963,100.17,-368.017,0,0
382264,102.633,-365.275,0,0
383566,105.695,-362.699,0,0
384868,108.871,-360.657,0,0
386169,111.67,-358.943,0,0
387471,114.548,-357.054,0,0
388773,117.587,-354.644,0,0
390074,122.164,-352.547,0,0
391376,126.79,-351.905,0,0
392677,130.978,-351.481,0,0
393979,135.262,-351.093,0,0
395280.7,140.292,-350.578,0,0
396582.325,146.955,-351.009,0,0
397883.95,154.613,-354.155,0,0
399185.575,161.352,-360.771,0,0
400006.6,164.144,-366.598,0,0