File: Accelerated corrosion test data/2025-10-11_06-00-04/sample_3.csv
Frequency (Hz),Impedance (ohms),Phase (Radians),Temperature (C),Humidity (%)
10000.0,249.132,-11794,0,0
11301.625,222.239,-10446.7,0,0
12603.25,201.24,-9375.51,0,0
13904.875,184.581,-8502.55,0,0
15206.5,171.244,-7771.81,0,0
16508.125,160.631,-7177.16,0,0
17809.75,154.913,-6648.13,0,0
19111.375,144.968,-6196.59,0,0
20413.0,158.174,-5797,0,0
21714.625,137.601,-5475.33,0,0
23016.25,127.353,-5169.18,0,0
24317.875,118.258,-4889.75,0,0
25619.5,112.781,-4642.74,0,0
26921.1,107.027,-4412.01,0,0
28222.7,102.6,-4205.19,0,0
29524.4,107.935,-4028.18,0,0
30826,100.809,-3856.29,0,0
32127.6,100.484,-3691.75,0,0
33429.2,99.0884,-3566.66,0,0
34730.9,87.2774,-3429.15,0,0
36032.5,82.7242,-3301.42,0,0
37334.1,79.7406,-3183.53,0,0
38635.7,77.4931,-3073.63,0,0
39937.4,74.9886,-2971.06,0,0
41239,73.816,-2873.97,0,0
42540.6,72.6238,-2784.4,0,0
43842.225,71.1807,-2698.72,0,0
45143.85,70.4821,-2619.3,0,0
46445.475,69.41,-2543.56,0,0
47747.1,69.6326,-2470.91,0,0
49048.725,68.0638,-2405.38,0,0
50350.35,66.1078,-2340.25,0,0
51651.975,65.6568,-2277.46,0,0
52953.6,66.0715,-2217.85,0,0
54255.225,68.9404,-2162.99,0,0
55556.85,66.3039,-2115.46,0,0
56858.475,61.2894,-2062.69,0,0
58160.1,60.776,-2010.7,0,0
59461.7,61.2122,-1961.44,0,0
60763.3,62.5798,-1914.79,0,0
62065,64.6615,-1870.04,0,0
63366.6,68.2897,-1826.48,0,0
64668.2,77.1257,-1784.68,0,0
65969.8,91.5377,-1759.11,0,0
67271.5,75.5458,-1733.94,0,0
68573.1,75.7395,-1696.29,0,0
69874.7,75.4239,-1667.22,0,0
71176.3,70.3917,-1636.71,0,0
72478,68.9656,-1603.99,0,0
73779.6,67.4822,-1575.64,0,0
75081.2,63.8676,-1547.41,0,0
76382.825,60.3261,-1518.23,0,0
77684.45,57.8701,-1489.28,0,0
78986.075,55.5847,-1460.78,0,0
80287.7,54.0532,-1432.77,0,0
81589.325,53.0915,-1405.57,0,0
82890.95,52.5727,-1379.14,0,0
84192.575,52.2632,-1353.55,0,0
85494.2,52.1573,-1328.52,0,0
86795.825,52.2693,-1304.12,0,0
88097.45,52.9443,-1280.23,0,0
89399.075,54.1846,-1256.51,0,0
90700.7,56.4809,-1234.8,0,0
92002.3,58.9567,-1214.11,0,0
93303.9,61.9139,-1195.3,0,0
94605.6,62.7931,-1180.67,0,0
95907.2,57.6928,-1163.04,0,0
97208.8,56.2801,-1141.92,0,0
98510.4,56.0835,-1122.43,0,0
99812.1,55.5209,-1103.49,0,0
101114,55.0943,-1083.77,0,0
102415,56.3017,-1063.36,0,0
103717,60.2342,-1045.61,0,0
105019,63.4989,-1031.55,0,0
106320.175,62.9137,-1017.88,0,0
107621.8,60.4231,-1002.3,0,0
108923.425,58.6417,-984.653,0,0
110225.05,58.7165,-966.064,0,0
111526.675,60.9684,-948.234,0,0
112828.3,63.2056,-932.226,0,0
114129.925,64.7457,-916.33,0,0
115431.55,66.7973,-899.441,0,0
116733.175,70.5597,-882.877,0,0
118034.8,76.3809,-867.103,0,0
119336.425,82.9141,-855.368,0,0
120638.05,88.7788,-848.84,0,0
121939.675,86.201,-840.591,0,0
123241,86.5559,-827.292,0,0
124543,88.0484,-815.975,0,0
125845,89.3683,-805.621,0,0
127146,88.7854,-795.948,0,0
128448,87.0867,-785.089,0,0
129749,85.4975,-772.071,0,0
131051,86.4854,-759.031,0,0
132353,86.0318,-748.019,0,0
133654,85.3949,-736.118,0,0
134956,83.827,-723.624,0,0
136258,82.4643,-710.174,0,0
137559,82.2981,-694.984,0,0
138860.775,83.5533,-681.536,0,0
140162.4,82.6474,-668.12,0,0
141464.025,82.4535,-653.844,0,0
142765.65,81.7701,-637.966,0,0
144067.275,82.1021,-620.86,0,0
145368.9,83.735,-602.837,0,0
146670.525,86.4297,-584.081,0,0
147972.15,90.6862,-564.194,0,0
149273.775,97.2361,-544.074,0,0
150575.4,107.606,-523.703,0,0
151877.025,120.277,-507.016,0,0
153178.65,133.028,-493.242,0,0
154480,143.099,-481.309,0,0
155782,151.066,-465.275,0,0
157084,162.767,-447.799,0,0
158385,179.585,-435.984,0,0
159687,184.205,-422.139,0,0
160988,199.529,-393.443,0,0
162290,225.713,-368.678,0,0
163592,261.36,-348.329,0,0
164893,309.13,-336.845,0,0
166195,361.524,-349.595,0,0
167497,400.104,-382.648,0,0
168798,421.297,-418.136,0,0
170100,421.927,-459.674,0,0
171401.375,406.724,-476.889,0,0
172703.0,400.857,-479.972,0,0
174004.625,409.465,-487.28,0,0
175306.25,413.395,-505.495,0,0
176607.875,407.101,-523.663,0,0
177909.5,386.973,-540.066,0,0
179211.125,364.062,-533.484,0,0
180512.75,358.736,-519.968,0,0
181814.375,363.188,-515.553,0,0
183116.0,356.677,-522.545,0,0
184417.625,341.371,-520.008,0,0
185719.25,328.042,-506.812,0,0
187021,322.585,-483.974,0,0
188322,329.179,-464.668,0,0
189624,334.982,-450.807,0,0
190926,344.691,-436.626,0,0
192227,353.779,-423.452,0,0
193529,364.569,-405.54,0,0
194831,387.578,-387.351,0,0
196132,420.96,-382.912,0,0
197434,442.932,-395.695,0,0
198735,455.792,-400.828,0,0
200037,467.445,-404.66,0,0
201339,472.646,-402.27,0,0
202640.35,490.731,-392.877,0,0
203941.975,520.236,-391.19,0,0
205243.6,549.073,-403.081,0,0
206545.225,563.652,-420.636,0,0
207846.85,580.508,-420.95,0,0
209148.475,611.853,-429.529,0,0
210450.1,644.573,-450.83,0,0
211751.725,671.584,-482.589,0,0
213053.35,692.152,-517.888,0,0
214354.975,706.475,-559.475,0,0
215656.6,715.072,-604.654,0,0
216958.225,711.48,-652.462,0,0
218259.85,697.549,-695.246,0,0
219561,678.511,-732.047,0,0
220863,659.212,-770.175,0,0
222165,628.584,-806.903,0,0
223466,584.678,-833.108,0,0
224768,542.05,-835.708,0,0
226070,520.038,-831.375,0,0
227371,504.18,-840.402,0,0
228673,479.687,-853.398,0,0
229974,450.886,-859.592,0,0
231276,422.951,-861.445,0,0
232578,397.111,-859.63,0,0
233879,372.902,-856.575,0,0
235180.95,349.781,-852.245,0,0
236482.575,326.04,-847.266,0,0
237784.2,301.814,-838.944,0,0
239085.825,277.826,-825.112,0,0
240387.45,260.264,-807.099,0,0
241689.075,246.585,-789.581,0,0
242990.7,238.119,-771.438,0,0
244292.325,233.018,-756.618,0,0
245593.95,228.329,-744.814,0,0
246895.575,223.154,-733.351,0,0
248197.2,218.871,-721.728,0,0
249498.825,217.98,-710.714,0,0
250800,216.561,-704.702,0,0
252102,210.509,-698.897,0,0
253404,202.154,-688.729,0,0
254705,197.125,-673.642,0,0
256007,197.423,-656.817,0,0
257309,205.196,-642.45,0,0
258610,213.9,-634.227,0,0
259912,224.696,-626.521,0,0
261213,239.897,-627.148,0,0
262515,250.089,-638.908,0,0
263817,249.002,-653.147,0,0
265118,239.043,-664.148,0,0
266420,224.594,-667.439,0,0
267721.55,210.771,-663.165,0,0
269023.175,201.455,-654.207,0,0
270324.8,196.238,-645.308,0,0
271626.425,194.233,-635.798,0,0
272928.05,194.364,-629.103,0,0
274229.675,193.39,-621.656,0,0
275531.3,196.695,-613.358,0,0
276832.925,204.231,-608.804,0,0
278134.55,211.833,-610.89,0,0
279436.175,215.44,-617.638,0,0
280737.8,212.989,-625.588,0,0
282039.425,206.334,-630.732,0,0
283341,197.652,-632.573,0,0
284643,188.64,-631.306,0,0
285944,180.473,-626.913,0,0
287246,174.835,-620.038,0,0
288548,173.423,-613.225,0,0
289849,173.235,-609.819,0,0
291151,171.738,-607.543,0,0
292452,168.76,-604.933,0,0
293754,166.983,-599.737,0,0
295056,168.875,-595.778,0,0
296357,171.58,-595.896,0,0
297659,171.562,-598.91,0,0
298960.525,168.12,-602.035,0,0
300262.15,162.771,-603.639,0,0
301563.775,156.437,-603.728,0,0
302865.4,149.7,-601.94,0,0
304167.025,143.564,-598.864,0,0
305468.65,137.99,-594.488,0,0
306770.275,133.883,-589.232,0,0
308071.9,131.588,-584.38,0,0
309373.525,129.715,-581.125,0,0
310675.15,126.88,-578.684,0,0
311976.775,122.933,-575.875,0,0
313278.4,118.294,-571.522,0,0
314580,114.754,-565.45,0,0
315882,113.403,-558.666,0,0
317183,114.245,-553.329,0,0
318485,115.017,-550.231,0,0
319787,114.873,-547.431,0,0
321088,114.954,-544.587,0,0
322390,115.926,-542.452,0,0
323691,116.527,-542.435,0,0
324993,115.133,-543.269,0,0
326295,112.071,-543.822,0,0
327596,107.767,-543.177,0,0
328898,103.323,-541.233,0,0
330200,99.1538,-538.652,0,0
331501.125,94.9926,-535.76,0,0
332802.75,90.6229,-532.216,0,0
334104.375,86.2838,-527.749,0,0
335406.0,82.5116,-522.232,0,0
336707.625,79.7991,-516.221,0,0
338009.25,77.8182,-510.214,0,0
339310.875,76.5441,-503.749,0,0
340612.5,76.7166,-496.994,0,0
341914.125,78.605,-491.162,0,0
343215.75,81.1509,-487.406,0,0
344517.375,83.0112,-485.318,0,0
345819.0,83.3073,-483.723,0,0
347121,82.8486,-481.469,0,0
348422,82.1888,-478.812,0,0
349724,81.7455,-475.359,0,0
351025,82.506,-471.938,0,0
352327,84.2025,-470,0,0
353629,84.4281,-469.663,0,0
354930,82.9157,-468.75,0,0
356232,81.1651,-466.639,0,0
357534,79.5209,-463.929,0,0
358835,78.3756,-460.429,0,0
360137,78.161,-456.95,0,0
361438,78.1474,-454.069,0,0
362740.1,78.0068,-451.181,0,0
364041.725,78.4852,-447.928,0,0
365343.35,80.1638,-445.946,0,0
366644.975,80.4952,-445.826,0,0
367946.6,78.6211,-445.135,0,0
369248.225,76.1474,-442.322,0,0
370549.85,75.8245,-437.879,0,0
371851.475,77.6106,-435.151,0,0
373153.1,77.9701,-434.896,0,0
374454.725,76.2128,-433.792,0,0
375756.35,74.3347,-431.118,0,0
377057.975,73.4885,-427.355,0,0
378359.6,73.8155,-423.836,0,0
379661,74.8236,-421.19,0,0
380963,75.6396,-419.532,0,0
382264,75.8129,-418.08,0,0
383566,75.6117,-416.844,0,0
384868,74.7763,-415.487,0,0
386169,73.4688,-413.492,0,0
387471,72.2994,-410.931,0,0
388773,71.2286,-407.759,0,0
390074,70.7378,-403.877,0,0
391376,71.3143,-399.869,0,0
392677,73.0749,-396.156,0,0
393979,75.5725,-393.69,0,0
395280.7,78.0039,-392.383,0,0
396582.325,79.8987,-392.051,0,0
397883.95,81.0144,-392.497,0,0
399185.575,80.7689,-393.1,0,0
400006.6,80.2388,-393.089,0,0