File: Accelerated corrosion test data/2025-10-11_06-00-04/sample_6.csv
Frequency (Hz),Impedance (ohms),Phase (Radians),Temperature (C),Humidity (%)
10000.0,4226.43,-6511.56,0,0
11301.625,3598.33,-6138.17,0,0
12603.25,3098.46,-5779.75,0,0
13904.875,2693,-5449.97,0,0
15206.5,2361.12,-5141.75,0,0
16508.125,2087.73,-4859.76,0,0
17809.75,1858.92,-4601.34,0,0
19111.375,1667.82,-4363.88,0,0
20413.0,1504.48,-4149.68,0,0
21714.625,1363.79,-3950.33,0,0
23016.25,1246.49,-3765.39,0,0
24317.875,1141.34,-3603.51,0,0
25619.5,1048.78,-3448.96,0,0
26921.1,968.459,-3305.44,0,0
28222.7,897.739,-3173.38,0,0
29524.4,834.065,-3048.35,0,0
30826,780.7,-2933.83,0,0
32127.6,732.139,-2825.31,0,0
33429.2,693.722,-2728.45,0,0
34730.9,650.407,-2639.68,0,0
36032.5,610.992,-2555.21,0,0
37334.1,575.252,-2470.43,0,0
38635.7,544.256,-2390.18,0,0
39937.4,519.775,-2313.95,0,0
41239,497.632,-2246.7,0,0
42540.6,474.132,-2184.42,0,0
43842.225,452.779,-2119.14,0,0
45143.85,438.358,-2059.94,0,0
46445.475,425.63,-2008.67,0,0
47747.1,409.515,-1961.9,0,0
49048.725,392.497,-1917.63,0,0
50350.35,371.338,-1874.58,0,0
51651.975,352.188,-1827.82,0,0
52953.6,336.343,-1782.23,0,0
54255.225,320.386,-1738.7,0,0
55556.85,306.761,-1694.78,0,0
56858.475,295.761,-1650.13,0,0
58160.1,289.846,-1609.37,0,0
59461.7,284.891,-1572.74,0,0
60763.3,280.309,-1539.63,0,0
62065,271.988,-1512.62,0,0
63366.6,264.993,-1476.64,0,0
64668.2,259.453,-1451.18,0,0
65969.8,249.503,-1422.08,0,0
67271.5,242.509,-1392.17,0,0
68573.1,237.873,-1364.04,0,0
69874.7,233.733,-1338.51,0,0
71176.3,228.369,-1315.63,0,0
72478,220.652,-1291.87,0,0
73779.6,214.64,-1267.18,0,0
75081.2,209.994,-1243.32,0,0
76382.825,205.179,-1221.11,0,0
77684.45,200.067,-1199.58,0,0
78986.075,194.934,-1178.11,0,0
80287.7,189.855,-1157.17,0,0
81589.325,184.552,-1136.04,0,0
82890.95,179.983,-1114.68,0,0
84192.575,175.936,-1093.6,0,0
85494.2,172.807,-1072.03,0,0
86795.825,171.492,-1051.27,0,0
88097.45,170.757,-1031.79,0,0
89399.075,171.56,-1013.71,0,0
90700.7,172.279,-998.885,0,0
92002.3,169.051,-985.695,0,0
93303.9,165.328,-968.848,0,0
94605.6,164.18,-951.564,0,0
95907.2,164.213,-936.877,0,0
97208.8,162.642,-924.198,0,0
98510.4,159.154,-909.032,0,0
99812.1,159.118,-894.076,0,0
101114,159.162,-882.452,0,0
102415,156.264,-870.918,0,0
103717,152.94,-860.001,0,0
105019,146.418,-848.871,0,0
106320.175,137.448,-832.445,0,0
107621.8,133.834,-811.287,0,0
108923.425,135.314,-792.163,0,0
110225.05,137.888,-774.494,0,0
111526.675,142.885,-758.328,0,0
112828.3,149.45,-747.281,0,0
114129.925,152.817,-737.909,0,0
115431.55,156.917,-728.311,0,0
116733.175,161.506,-725.612,0,0
118034.8,153.484,-723.273,0,0
119336.425,145.921,-710.392,0,0
120638.05,145.126,-694.882,0,0
121939.675,146.109,-686.696,0,0
123241,142.671,-675.696,0,0
124543,141.325,-664.512,0,0
125845,138.915,-653.473,0,0
127146,136.227,-641.105,0,0
128448,135.447,-626.665,0,0
129749,137.286,-614.544,0,0
131051,136.97,-603.693,0,0
132353,136.367,-591.409,0,0
133654,136.958,-578.696,0,0
134956,137.791,-565.927,0,0
136258,139.344,-552.72,0,0
137559,142.686,-539.806,0,0
138860.775,146.144,-528.428,0,0
140162.4,149.875,-517.125,0,0
141464.025,154.713,-506.736,0,0
142765.65,157.779,-498.719,0,0
144067.275,159.496,-489.27,0,0
145368.9,162.211,-478.736,0,0
146670.525,165.288,-469.767,0,0
147972.15,166.066,-461.388,0,0
149273.775,165.805,-449.68,0,0
150575.4,167.689,-435.975,0,0
151877.025,171.634,-421.146,0,0
153178.65,180.396,-408.468,0,0
154480,186.867,-400.218,0,0
155782,191.498,-388.81,0,0
157084,199.765,-379.685,0,0
158385,204.083,-372.646,0,0
159687,207.234,-362.978,0,0
160988,211.189,-352.013,0,0
162290,215.712,-340.68,0,0
163592,221.146,-327.896,0,0
164893,227.385,-315.924,0,0
166195,234.215,-302.791,0,0
167497,241.866,-289.719,0,0
168798,250.937,-276.209,0,0
170100,260.192,-263.578,0,0
171401.375,269.062,-250.203,0,0
172703.0,278.291,-235.445,0,0
174004.625,288.112,-218.845,0,0
175306.25,300.008,-199.31,0,0
176607.875,315.696,-177.574,0,0
177909.5,336.397,-154.618,0,0
179211.125,363.591,-132.477,0,0
180512.75,395.038,-115.038,0,0
181814.375,427.8,-99.3541,0,0
183116.0,463.996,-86.166,0,0
184417.625,501.247,-73.5617,0,0
185719.25,544.146,-59.0918,0,0
187021,597.536,-46.2106,0,0
188322,662.264,-41.2472,0,0
189624,735.745,-49.663,0,0
190926,813.519,-75.6879,0,0
192227,886.891,-119.147,0,0
193529,956.101,-174.777,0,0
194831,1021.99,-247.378,0,0
196132,1075.83,-340.789,0,0
197434,1108.24,-451.069,0,0
198735,1111.16,-568.746,0,0
200037,1086.94,-682.053,0,0
201339,1038.63,-786.188,0,0
202640.35,968.44,-872.3,0,0
203941.975,886.633,-934.427,0,0
205243.6,802.125,-974.163,0,0
206545.225,721.66,-995.451,0,0
207846.85,647.287,-1002.59,0,0
209148.475,580.862,-999.075,0,0
210450.1,522.718,-988.809,0,0
211751.725,471.404,-973.89,0,0
213053.35,427.177,-954.77,0,0
214354.975,388.833,-935.251,0,0
215656.6,354.388,-913.316,0,0
216958.225,325.613,-890.475,0,0
218259.85,300.564,-867.25,0,0
219561,279.239,-843.498,0,0
220863,261.603,-819.263,0,0
222165,248.162,-795.072,0,0
223466,239.181,-771.598,0,0
224768,234.577,-750.491,0,0
226070,232.791,-734.265,0,0
227371,229.584,-722.087,0,0
228673,223.763,-710.408,0,0
229974,217.569,-697.081,0,0
231276,212.896,-682.733,0,0
232578,209.924,-668.015,0,0
233879,208.8,-653.467,0,0
235180.95,209.654,-639.552,0,0
236482.575,212.106,-626.827,0,0
237784.2,216.057,-615.303,0,0
239085.825,221.219,-605.166,0,0
240387.45,227.463,-596.712,0,0
241689.075,234.137,-589.989,0,0
242990.7,241.223,-584.543,0,0
244292.325,249.713,-580.188,0,0
245593.95,259.384,-579.205,0,0
246895.575,267.538,-581.354,0,0
248197.2,274.382,-585.28,0,0
249498.825,279.602,-589.639,0,0
250800,286.261,-594.764,0,0
252102,292.111,-605.156,0,0
253404,293.948,-617.834,0,0
254705,291.887,-632.526,0,0
256007,283.937,-646.82,0,0
257309,271.885,-657.793,0,0
258610,258.016,-664.92,0,0
259912,243.679,-668.925,0,0
261213,229.566,-670.355,0,0
262515,216.046,-669.58,0,0
263817,203.614,-667.187,0,0
265118,191.903,-663.616,0,0
266420,181.37,-659.127,0,0
267721.55,171.664,-654.128,0,0
269023.175,162.765,-648.741,0,0
270324.8,154.543,-642.952,0,0
271626.425,146.988,-636.899,0,0
272928.05,140.102,-630.498,0,0
274229.675,133.964,-624.117,0,0
275531.3,128.203,-617.624,0,0
276832.925,123.026,-611.033,0,0
278134.55,118.339,-604.485,0,0
279436.175,114.058,-597.791,0,0
280737.8,110.702,-590.909,0,0
282039.425,108.199,-584.787,0,0
283341,105.523,-579.231,0,0
284643,103.015,-573.524,0,0
285944,101.317,-567.976,0,0
287246,99.7999,-563.66,0,0
288548,97.4168,-559.616,0,0
289849,94.9254,-555.162,0,0
291151,92.7307,-550.666,0,0
292452,90.7033,-546.363,0,0
293754,88.5081,-542.408,0,0
295056,85.8654,-538.358,0,0
296357,83.1328,-533.684,0,0
297659,80.9738,-528.366,0,0
298960.525,79.9753,-523.23,0,0
300262.15,79.1038,-519.291,0,0
301563.775,77.6535,-515.501,0,0
302865.4,76.2236,-511.477,0,0
304167.025,74.8781,-507.382,0,0
305468.65,73.8237,-503.45,0,0
306770.275,72.7963,-499.917,0,0
308071.9,71.4854,-496.504,0,0
309373.525,70.1335,-492.931,0,0
310675.15,68.8564,-489.37,0,0
311976.775,67.5729,-485.871,0,0
313278.4,66.2171,-482.292,0,0
314580,64.9734,-478.7,0,0
315882,63.9002,-475.078,0,0
317183,62.8343,-471.496,0,0
318485,61.7391,-468.04,0,0
319787,60.726,-464.429,0,0
321088,59.8633,-460.909,0,0
322390,59.0908,-457.394,0,0
323691,58.3611,-454.053,0,0
324993,57.6332,-450.812,0,0
326295,56.7948,-447.621,0,0
327596,55.9919,-444.321,0,0
328898,55.1881,-440.998,0,0
330200,54.4879,-437.666,0,0
331501.125,53.872,-434.356,0,0
332802.75,53.3351,-431.034,0,0
334104.375,52.9164,-427.775,0,0
335406.0,52.5271,-424.59,0,0
336707.625,52.1658,-421.535,0,0
338009.25,51.7668,-418.494,0,0
339310.875,51.4169,-415.419,0,0
340612.5,51.1103,-412.336,0,0
341914.125,50.889,-409.285,0,0
343215.75,50.8546,-406.327,0,0
344517.375,50.7327,-403.695,0,0
345819.0,50.376,-400.953,0,0
347121,50.0803,-398.002,0,0
348422,49.9929,-395.065,0,0
349724,50.0132,-392.233,0,0
351025,50.1248,-389.462,0,0
352327,50.2711,-386.839,0,0
353629,50.4109,-384.406,0,0
354930,50.5193,-382.07,0,0
356232,50.4853,-379.792,0,0
357534,50.3679,-377.532,0,0
358835,50.2697,-375.225,0,0
360137,50.1454,-372.923,0,0
361438,49.9104,-370.741,0,0
362740.1,49.6329,-368.355,0,0
364041.725,49.4211,-365.926,0,0
365343.35,49.2607,-363.474,0,0
366644.975,49.2001,-361.019,0,0
367946.6,49.1942,-358.696,0,0
369248.225,49.1279,-356.373,0,0
370549.85,49.0988,-354.048,0,0
371851.475,49.2132,-351.763,0,0
373153.1,49.3646,-349.608,0,0
374454.725,49.3601,-347.763,0,0
375756.35,48.9511,-345.822,0,0
377057.975,48.5024,-343.646,0,0
378359.6,48.1466,-341.325,0,0
379661,47.8141,-338.879,0,0
380963,47.4664,-336.367,0,0
382264,47.408,-333.647,0,0
383566,47.693,-331.164,0,0
384868,47.7058,-329.123,0,0
386169,47.4729,-326.76,0,0
387471,47.2896,-324.352,0,0
388773,47.2102,-321.834,0,0
390074,47.169,-319.315,0,0
391376,47.144,-316.785,0,0
392677,47.1714,-314.219,0,0
393979,47.1927,-311.596,0,0
395280.7,47.2765,-308.984,0,0
396582.325,47.3964,-306.309,0,0
397883.95,47.5814,-303.635,0,0
399185.575,47.8209,-300.909,0,0
400006.6,47.9866,-299.198,0,0