File: Accelerated corrosion test data/2025-10-02_18-00-03/sample_7.csv
Frequency (Hz),Impedance (ohms),Phase (Radians),Temperature (C),Humidity (%)
10000.0,278.305,-12001.1,0,0
11301.625,250.216,-10617.3,0,0
12603.25,264.552,-9578.95,0,0
13904.875,211.525,-8687.15,0,0
15206.5,201.165,-7952.5,0,0
16508.125,174.891,-7318.53,0,0
17809.75,172.196,-6768.13,0,0
19111.375,183.429,-6334.3,0,0
20413.0,173.596,-5936.69,0,0
21714.625,157.295,-5596.6,0,0
23016.25,133.668,-5278.39,0,0
24317.875,125.398,-4988.14,0,0
25619.5,121.535,-4726.21,0,0
26921.1,125.22,-4483.44,0,0
28222.7,181.805,-4280.91,0,0
29524.4,136.554,-4137.26,0,0
30826,137.039,-3956.8,0,0
32127.6,119.909,-3812.78,0,0
33429.2,104.186,-3662.92,0,0
34730.9,94.9988,-3519.69,0,0
36032.5,90.9343,-3387.05,0,0
37334.1,88.3827,-3264.71,0,0
38635.7,88.5373,-3148.71,0,0
39937.4,98.8049,-3049.16,0,0
41239,88.7225,-2961.7,0,0
42540.6,81.9542,-2866.48,0,0
43842.225,81.6384,-2778.53,0,0
45143.85,82.0298,-2701.88,0,0
46445.475,79.3708,-2629.27,0,0
47747.1,72.9875,-2553.65,0,0
49048.725,70.2638,-2484.04,0,0
50350.35,68.3099,-2417.47,0,0
51651.975,66.6134,-2354.35,0,0
52953.6,65.7584,-2294.19,0,0
54255.225,64.3433,-2237.81,0,0
55556.85,63.2697,-2183.33,0,0
56858.475,62.5136,-2131.5,0,0
58160.1,61.8403,-2081.31,0,0
59461.7,61.886,-2034.54,0,0
60763.3,61.3446,-1990.92,0,0
62065,59.4277,-1947.72,0,0
63366.6,58.3484,-1905.6,0,0
64668.2,57.3385,-1865.18,0,0
65969.8,57.465,-1827.03,0,0
67271.5,55.6905,-1790.53,0,0
68573.1,54.4728,-1753.9,0,0
69874.7,54.0213,-1718.85,0,0
71176.3,53.6661,-1685.77,0,0
72478,52.6619,-1653.59,0,0
73779.6,51.7586,-1621.88,0,0
75081.2,51.3383,-1591.29,0,0
76382.825,50.82,-1561.78,0,0
77684.45,50.4739,-1533.04,0,0
78986.075,50.2115,-1505.24,0,0
80287.7,50.0769,-1478.33,0,0
81589.325,49.7491,-1452.26,0,0
82890.95,49.644,-1426.83,0,0
84192.575,49.6016,-1401.95,0,0
85494.2,49.9202,-1378.04,0,0
86795.825,49.8339,-1354.82,0,0
88097.45,50.1241,-1332.1,0,0
89399.075,49.9563,-1310.1,0,0
90700.7,50.3272,-1288.16,0,0
92002.3,50.5901,-1267.13,0,0
93303.9,50.6739,-1246.2,0,0
94605.6,53.3334,-1226.43,0,0
95907.2,52.3816,-1208.77,0,0
97208.8,52.0012,-1188.99,0,0
98510.4,52.9469,-1169.73,0,0
99812.1,52.6785,-1151.4,0,0
101114,53.8524,-1132.49,0,0
102415,55.3995,-1114.74,0,0
103717,58.2615,-1097.98,0,0
105019,59.4262,-1082.94,0,0
106320.175,58.8711,-1067.2,0,0
107621.8,60.2121,-1050.74,0,0
108923.425,61.067,-1035.52,0,0
110225.05,61.2989,-1018.98,0,0
111526.675,64.29,-1002.03,0,0
112828.3,68.3414,-986.084,0,0
114129.925,73.4552,-973.063,0,0
115431.55,78.2845,-960.741,0,0
116733.175,85.3026,-951.117,0,0
118034.8,87.9401,-946.156,0,0
119336.425,89.9212,-940.898,0,0
120638.05,84.4893,-939.321,0,0
121939.675,74.9396,-928.904,0,0
123241,68.7198,-915.666,0,0
124543,64.7261,-900.925,0,0
125845,61.3734,-887.716,0,0
127146,58.5026,-873.118,0,0
128448,56.7747,-858.31,0,0
129749,55.672,-843.777,0,0
131051,55.0548,-829.246,0,0
132353,54.4313,-814.209,0,0
133654,55.2935,-798.748,0,0
134956,58.2578,-783.859,0,0
136258,63.1475,-771.896,0,0
137559,64.016,-763.18,0,0
138860.775,62.6836,-751.973,0,0
140162.4,62.5467,-738.59,0,0
141464.025,63.0297,-725.717,0,0
142765.65,63.6753,-711.975,0,0
144067.275,65.8473,-698.374,0,0
145368.9,67.7361,-685.867,0,0
146670.525,68.9084,-672.446,0,0
147972.15,70.8572,-658.927,0,0
149273.775,72.5532,-645.626,0,0
150575.4,73.8622,-630.226,0,0
151877.025,76.6417,-613.267,0,0
153178.65,82.0257,-595.565,0,0
154480,89.3132,-578.2,0,0
155782,99.179,-561.741,0,0
157084,110.672,-547.595,0,0
158385,121.818,-536.333,0,0
159687,129.037,-526.501,0,0
160988,133.105,-508.944,0,0
162290,145.039,-484.876,0,0
163592,165.391,-461.699,0,0
164893,194.401,-443.078,0,0
166195,226.275,-426.663,0,0
167497,275.254,-418.263,0,0
168798,327.399,-432.318,0,0
170100,368.013,-465.629,0,0
171401.375,397.701,-515.771,0,0
172703.0,400.43,-570.321,0,0
174004.625,373.425,-614.688,0,0
175306.25,337.196,-631.073,0,0
176607.875,319.891,-620.638,0,0
177909.5,326.587,-628.541,0,0
179211.125,319.56,-663.646,0,0
180512.75,282.513,-679.685,0,0
181814.375,246.997,-685.796,0,0
183116.0,208.878,-672.655,0,0
184417.625,183.323,-648.803,0,0
185719.25,170.2,-626.231,0,0
187021,157.171,-601.32,0,0
188322,155.043,-576.275,0,0
189624,150.356,-560.753,0,0
190926,144.994,-537.566,0,0
192227,146.073,-512.234,0,0
193529,150.471,-488.025,0,0
194831,159.022,-464.261,0,0
196132,171.239,-443.159,0,0
197434,185.235,-424.619,0,0
198735,199.753,-406.217,0,0
200037,216.66,-387.858,0,0
201339,238.807,-369.815,0,0
202640.35,266.44,-353.168,0,0
203941.975,299.837,-343.608,0,0
205243.6,334.718,-342.452,0,0
206545.225,369.447,-351.057,0,0
207846.85,392.045,-362.758,0,0
209148.475,422.588,-359.742,0,0
210450.1,473.812,-383.789,0,0
211751.725,503.227,-435.887,0,0
213053.35,505.911,-481.564,0,0
214354.975,497.886,-523.414,0,0
215656.6,477.786,-550.528,0,0
216958.225,464.286,-572.49,0,0
218259.85,440.483,-591.895,0,0
219561,412.884,-599.021,0,0
220863,390.639,-589.042,0,0
222165,382.958,-574.723,0,0
223466,386.193,-564.467,0,0
224768,393.265,-558.239,0,0
226070,407.99,-555.061,0,0
227371,426.577,-566.101,0,0
228673,442.247,-584.609,0,0
229974,448.96,-616.522,0,0
231276,442.292,-651.328,0,0
232578,423.829,-680.01,0,0
233879,396.09,-709.008,0,0
235180.95,349.427,-720.604,0,0
236482.575,313.497,-706.836,0,0
237784.2,291.954,-694.541,0,0
239085.825,271.025,-674.833,0,0
240387.45,267.913,-655.015,0,0
241689.075,264.579,-649.691,0,0
242990.7,252.78,-641.409,0,0
244292.325,247.335,-623.414,0,0
245593.95,254.26,-609.241,0,0
246895.575,259.634,-605.871,0,0
248197.2,261.618,-603.396,0,0
249498.825,264.039,-601.52,0,0
250800,265.847,-602.207,0,0
252102,266.71,-603.189,0,0
253404,265.615,-607.099,0,0
254705,260.734,-612.036,0,0
256007,251.175,-613.586,0,0
257309,241.573,-609.631,0,0
258610,233.712,-601.775,0,0
259912,230.256,-592.27,0,0
261213,229.527,-580.882,0,0
262515,236.938,-568.911,0,0
263817,251.353,-566.248,0,0
265118,260.73,-574.089,0,0
266420,263.902,-581.619,0,0
267721.55,265.579,-590.079,0,0
269023.175,262.874,-598.202,0,0
270324.8,262.198,-603.195,0,0
271626.425,263.664,-613.152,0,0
272928.05,262.478,-634.248,0,0
274229.675,240.386,-657.881,0,0
275531.3,205.681,-664.484,0,0
276832.925,173.499,-653.963,0,0
278134.55,151.321,-632.748,0,0
279436.175,142.091,-609.759,0,0
280737.8,140.198,-591.2,0,0
282039.425,140.617,-578.778,0,0
283341,138.291,-567.587,0,0
284643,137.615,-553.59,0,0
285944,141.687,-541.178,0,0
287246,146.097,-532.411,0,0
288548,149.151,-524.145,0,0
289849,154.093,-514.673,0,0
291151,161.459,-507.099,0,0
292452,169.081,-501.874,0,0
293754,176.455,-497.931,0,0
295056,184.121,-493.779,0,0
296357,194.384,-489.936,0,0
297659,207.383,-489.309,0,0
298960.525,221.322,-492.977,0,0
300262.15,235.56,-501.01,0,0
301563.775,249.875,-515.746,0,0
302865.4,258.294,-541.591,0,0
304167.025,249.265,-568.74,0,0
305468.65,232.383,-587.108,0,0
306770.275,211.748,-597.635,0,0
308071.9,191.411,-600.119,0,0
309373.525,173.793,-597.422,0,0
310675.15,160.011,-591.571,0,0
311976.775,149.534,-584.994,0,0
313278.4,140.862,-578.921,0,0
314580,132.744,-572.18,0,0
315882,126.731,-564.277,0,0
317183,122.765,-557.003,0,0
318485,119.806,-550.897,0,0
319787,117.671,-544.945,0,0
321088,116.493,-540.802,0,0
322390,114.347,-537.709,0,0
323691,111.415,-534.725,0,0
324993,108.238,-531.148,0,0
326295,105.593,-527.339,0,0
327596,103.067,-524.087,0,0
328898,100.074,-521.053,0,0
330200,97.0663,-517.511,0,0
331501.125,94.1186,-514.176,0,0
332802.75,90.3799,-511.171,0,0
334104.375,85.9304,-506.924,0,0
335406.0,81.975,-501.564,0,0
336707.625,78.7301,-495.699,0,0
338009.25,76.2883,-489.42,0,0
339310.875,74.6558,-483.18,0,0
340612.5,73.5492,-477.098,0,0
341914.125,72.9646,-470.938,0,0
343215.75,73.1372,-465.109,0,0
344517.375,73.9754,-459.693,0,0
345819.0,75.1769,-455.299,0,0
347121,76.0229,-451.82,0,0
348422,75.957,-448.595,0,0
349724,75.3245,-444.724,0,0
351025,74.8974,-440.227,0,0
352327,75.291,-435.172,0,0
353629,76.9186,-430.469,0,0
354930,79.0203,-427.037,0,0
356232,80.6324,-424.923,0,0
357534,80.6107,-423.313,0,0
358835,79.3096,-420.441,0,0
360137,78.4507,-415.71,0,0
361438,79.2362,-410.561,0,0
362740.1,81.0457,-406.014,0,0
364041.725,83.1745,-402.101,0,0
365343.35,85.8563,-398.739,0,0
366644.975,88.5633,-396.511,0,0
367946.6,90.692,-394.628,0,0
369248.225,92.8789,-393.449,0,0
370549.85,93.6746,-393.46,0,0
371851.475,92.1633,-392.123,0,0
373153.1,91.2077,-388.316,0,0
374454.725,91.883,-384.13,0,0
375756.35,93.3159,-380.316,0,0
377057.975,95.1242,-376.796,0,0
378359.6,96.9971,-373.192,0,0
379661,99.8014,-369.464,0,0
380963,103.18,-366.684,0,0
382264,106.571,-364.304,0,0
383566,110.291,-362.531,0,0
384868,113.692,-361.431,0,0
386169,116.533,-360.676,0,0
387471,119.369,-359.386,0,0
388773,122.257,-358.13,0,0
390074,125.899,-356.8,0,0
391376,130.033,-356.062,0,0
392677,134.236,-355.754,0,0
393979,139.093,-355.938,0,0
395280.7,144.47,-357.102,0,0
396582.325,150.072,-359.993,0,0
397883.95,155.543,-364.764,0,0
399185.575,159.165,-372.066,0,0
400006.6,159.842,-377.432,0,0