File: Accelerated corrosion test data/2025-10-02_18-00-03/sample_3.csv
Frequency (Hz),Impedance (ohms),Phase (Radians),Temperature (C),Humidity (%)
10000.0,256.688,-11673.1,0,0
11301.625,228.507,-10340.1,0,0
12603.25,206.514,-9280.42,0,0
13904.875,188.842,-8417.04,0,0
15206.5,176.348,-7694.96,0,0
16508.125,164.546,-7105.34,0,0
17809.75,160.833,-6581.68,0,0
19111.375,148.671,-6134.71,0,0
20413.0,159.202,-5738.21,0,0
21714.625,139.674,-5419.9,0,0
23016.25,129.725,-5117.54,0,0
24317.875,120.955,-4841.29,0,0
25619.5,114.871,-4596.12,0,0
26921.1,110.139,-4368.64,0,0
28222.7,105.091,-4164.3,0,0
29524.4,111.286,-3987.58,0,0
30826,101.999,-3817.31,0,0
32127.6,102.493,-3655.86,0,0
33429.2,100.781,-3531.4,0,0
34730.9,89.0883,-3394.89,0,0
36032.5,84.674,-3268.81,0,0
37334.1,81.9586,-3152.01,0,0
38635.7,79.2712,-3043.2,0,0
39937.4,76.9322,-2942,0,0
41239,75.4733,-2846,0,0
42540.6,74.4188,-2757.01,0,0
43842.225,73.1377,-2672.4,0,0
45143.85,71.863,-2593.37,0,0
46445.475,71.0259,-2518.23,0,0
47747.1,71.0485,-2446.3,0,0
49048.725,69.6118,-2381.61,0,0
50350.35,67.7257,-2316.98,0,0
51651.975,67.3738,-2254.88,0,0
52953.6,67.8978,-2195.6,0,0
54255.225,70.8209,-2141.75,0,0
55556.85,67.9728,-2095.11,0,0
56858.475,62.7627,-2042.37,0,0
58160.1,62.3687,-1990.66,0,0
59461.7,62.8955,-1941.98,0,0
60763.3,64.3667,-1895.74,0,0
62065,66.5571,-1851.48,0,0
63366.6,70.2967,-1808.51,0,0
64668.2,79.3745,-1767.67,0,0
65969.8,93.3204,-1743.61,0,0
67271.5,77.3751,-1717.87,0,0
68573.1,76.9287,-1681.28,0,0
69874.7,75.9043,-1652.13,0,0
71176.3,70.3015,-1621.06,0,0
72478,68.9235,-1588.79,0,0
73779.6,66.9268,-1560.29,0,0
75081.2,63.4974,-1531.71,0,0
76382.825,60.2919,-1502.31,0,0
77684.45,58.1534,-1473.56,0,0
78986.075,56.1983,-1445.3,0,0
80287.7,54.9021,-1417.53,0,0
81589.325,54.0395,-1390.56,0,0
82890.95,53.5299,-1364.4,0,0
84192.575,53.3583,-1338.92,0,0
85494.2,53.3789,-1314.15,0,0
86795.825,53.6791,-1290.1,0,0
88097.45,54.3263,-1266.26,0,0
89399.075,55.6107,-1242.77,0,0
90700.7,58.1708,-1220.99,0,0
92002.3,61.0975,-1200.48,0,0
93303.9,64.4833,-1182.4,0,0
94605.6,65.6974,-1168.45,0,0
95907.2,59.7779,-1151.21,0,0
97208.8,58.7523,-1130.39,0,0
98510.4,58.4583,-1111.54,0,0
99812.1,57.4759,-1093.01,0,0
101114,56.647,-1073.42,0,0
102415,57.9987,-1052.9,0,0
103717,61.7966,-1035.57,0,0
105019,65.056,-1022,0,0
106320.175,63.39,-1008.54,0,0
107621.8,60.6399,-992.333,0,0
108923.425,58.9586,-974.298,0,0
110225.05,59.2748,-955.445,0,0
111526.675,61.9862,-937.699,0,0
112828.3,64.1495,-921.736,0,0
114129.925,66.1542,-905.528,0,0
115431.55,68.9374,-889.268,0,0
116733.175,73.0112,-873.317,0,0
118034.8,78.7183,-858.332,0,0
119336.425,85.3483,-847.272,0,0
120638.05,89.678,-841.298,0,0
121939.675,87.6264,-832.329,0,0
123241,87.9536,-819.914,0,0
124543,88.7431,-809.111,0,0
125845,89.0206,-798.897,0,0
127146,87.7431,-788.648,0,0
128448,85.3803,-777.105,0,0
129749,84.0182,-763.297,0,0
131051,85.5138,-750.1,0,0
132353,85.081,-738.824,0,0
133654,84.3987,-726.868,0,0
134956,82.8901,-714.17,0,0
136258,81.5949,-700.132,0,0
137559,81.6891,-684.987,0,0
138860.775,83.0893,-671.408,0,0
140162.4,82.3872,-657.499,0,0
141464.025,82.5892,-642.741,0,0
142765.65,82.4519,-626.852,0,0
144067.275,83.2019,-609.573,0,0
145368.9,85.1255,-591.756,0,0
146670.525,88.0658,-572.666,0,0
147972.15,93.1514,-552.784,0,0
149273.775,100.383,-532.438,0,0
150575.4,111.521,-512.333,0,0
151877.025,125.138,-496.321,0,0
153178.65,137.984,-483.465,0,0
154480,147.968,-471.458,0,0
155782,156.648,-455.499,0,0
157084,168.215,-438.655,0,0
158385,183.884,-425.367,0,0
159687,192.463,-410.246,0,0
160988,208.345,-382.029,0,0
162290,238.819,-357.369,0,0
163592,279.74,-342.132,0,0
164893,327.688,-337.845,0,0
166195,378.056,-358.091,0,0
167497,409.609,-394.026,0,0
168798,422.535,-434.186,0,0
170100,418.088,-471.275,0,0
171401.375,398.168,-483.706,0,0
172703.0,393.668,-482.162,0,0
174004.625,401.184,-485.153,0,0
175306.25,405.564,-504.483,0,0
176607.875,395.613,-521.147,0,0
177909.5,378.576,-533.05,0,0
179211.125,357.868,-524.56,0,0
180512.75,351.893,-510.417,0,0
181814.375,357.024,-505.93,0,0
183116.0,349.562,-511.559,0,0
184417.625,337.225,-504.05,0,0
185719.25,328.308,-488.924,0,0
187021,326.762,-467.629,0,0
188322,335.897,-450.561,0,0
189624,343.396,-439.549,0,0
190926,353.308,-427.214,0,0
192227,361.928,-414.116,0,0
193529,374.862,-396.907,0,0
194831,400.913,-378.93,0,0
196132,434.687,-380.812,0,0
197434,457.685,-395.362,0,0
198735,465.669,-408.851,0,0
200037,471.456,-409.908,0,0
201339,476.348,-406.062,0,0
202640.35,491.52,-394.809,0,0
203941.975,522.272,-390.525,0,0
205243.6,553.273,-402.319,0,0
206545.225,569.239,-421.354,0,0
207846.85,584.094,-427.81,0,0
209148.475,610.404,-433.69,0,0
210450.1,642.79,-452.821,0,0
211751.725,669.798,-482.262,0,0
213053.35,691.925,-516.378,0,0
214354.975,709.503,-558.681,0,0
215656.6,717.181,-604.968,0,0
216958.225,716.576,-655.403,0,0
218259.85,700.258,-703.257,0,0
219561,674.483,-740.245,0,0
220863,655.626,-774.628,0,0
222165,622.081,-810.507,0,0
223466,578.521,-834.107,0,0
224768,538.132,-835.074,0,0
226070,517.018,-832.388,0,0
227371,500.364,-843.284,0,0
228673,475.867,-855.844,0,0
229974,445.37,-864.063,0,0
231276,414.496,-865.367,0,0
232578,386.751,-861.83,0,0
233879,361.592,-856.87,0,0
235180.95,337.343,-851.079,0,0
236482.575,312.336,-843.633,0,0
237784.2,288.343,-831.584,0,0
239085.825,266.611,-815.07,0,0
240387.45,250.713,-795.58,0,0
241689.075,240.003,-776.661,0,0
242990.7,233.949,-758.735,0,0
244292.325,230.961,-744.48,0,0
245593.95,227.315,-733.903,0,0
246895.575,223.544,-723.501,0,0
248197.2,219.632,-713.239,0,0
249498.825,218.042,-703.669,0,0
250800,215.759,-697.118,0,0
252102,209.917,-690.569,0,0
253404,202.656,-679.538,0,0
254705,199.501,-664.566,0,0
256007,201.539,-648.746,0,0
257309,210.09,-636.235,0,0
258610,219.392,-630.308,0,0
259912,229.484,-625.06,0,0
261213,242.098,-627.685,0,0
262515,249.822,-639.259,0,0
263817,246.244,-652.581,0,0
265118,235.553,-660.949,0,0
266420,221.182,-662.219,0,0
267721.55,208.603,-656.165,0,0
269023.175,201.044,-646.866,0,0
270324.8,197.705,-637.021,0,0
271626.425,197.615,-628.523,0,0
272928.05,199.395,-622.509,0,0
274229.675,200.297,-617.493,0,0
275531.3,203.997,-612.353,0,0
276832.925,210.452,-610.377,0,0
278134.55,216.48,-615.058,0,0
279436.175,216.8,-624.188,0,0
280737.8,209.391,-631.56,0,0
282039.425,200.253,-633.698,0,0
283341,190.281,-633.008,0,0
284643,181.618,-628.806,0,0
285944,174.199,-622.814,0,0
287246,169.139,-614.468,0,0
288548,168.67,-605.826,0,0
289849,170.815,-601.105,0,0
291151,171.685,-598.684,0,0
292452,171.148,-596.648,0,0
293754,171.338,-593.352,0,0
295056,174.131,-591.521,0,0
296357,176.928,-594.131,0,0
297659,175.974,-599.322,0,0
298960.525,170.534,-603.916,0,0
300262.15,163.334,-605.552,0,0
301563.775,155.605,-605.154,0,0
302865.4,148.146,-602.53,0,0
304167.025,141.786,-598.689,0,0
305468.65,136.562,-593.966,0,0
306770.275,132.382,-589.06,0,0
308071.9,129.636,-584.272,0,0
309373.525,127.239,-581.035,0,0
310675.15,123.603,-578.116,0,0
311976.775,119.484,-574.331,0,0
313278.4,115.042,-569.279,0,0
314580,112.164,-562.536,0,0
315882,111.893,-555.757,0,0
317183,113.387,-551.179,0,0
318485,114.218,-548.978,0,0
319787,113.601,-546.96,0,0
321088,112.797,-544.417,0,0
322390,112.619,-542.237,0,0
323691,112.543,-541.559,0,0
324993,110.926,-541.677,0,0
326295,107.674,-541.636,0,0
327596,103.585,-540.333,0,0
328898,99.6282,-537.964,0,0
330200,95.7604,-535.415,0,0
331501.125,91.5753,-532.421,0,0
332802.75,87.119,-528.557,0,0
334104.375,83.0659,-523.755,0,0
335406.0,79.4889,-517.939,0,0
336707.625,77.1577,-511.492,0,0
338009.25,75.9958,-505.272,0,0
339310.875,75.375,-498.924,0,0
340612.5,76.295,-492.612,0,0
341914.125,78.6107,-487.754,0,0
343215.75,80.8657,-484.919,0,0
344517.375,82.0424,-483.203,0,0
345819.0,81.9389,-481.585,0,0
347121,81.2094,-479.351,0,0
348422,80.3861,-476.508,0,0
349724,80.2117,-473.044,0,0
351025,81.1744,-469.956,0,0
352327,82.2829,-468.647,0,0
353629,81.7821,-468.254,0,0
354930,79.7157,-466.921,0,0
356232,77.6382,-464.174,0,0
357534,76.2874,-460.927,0,0
358835,75.2196,-457.424,0,0
360137,74.858,-453.749,0,0
361438,74.9961,-450.234,0,0
362740.1,75.6748,-447.145,0,0
364041.725,76.7032,-444.402,0,0
365343.35,78.1688,-442.966,0,0
366644.975,78.1439,-443.269,0,0
367946.6,75.6843,-442.522,0,0
369248.225,72.7976,-439.046,0,0
370549.85,72.7947,-434.091,0,0
371851.475,74.7156,-431.606,0,0
373153.1,74.9622,-430.967,0,0
374454.725,73.5064,-429.76,0,0
375756.35,71.7738,-427.016,0,0
377057.975,71.0349,-423.216,0,0
378359.6,71.4319,-419.914,0,0
379661,72.2979,-417.143,0,0
380963,73.1265,-415.129,0,0
382264,73.8307,-413.627,0,0
383566,73.7476,-412.732,0,0
384868,72.8302,-411.489,0,0
386169,71.3757,-409.568,0,0
387471,70.1949,-406.816,0,0
388773,69.2223,-403.58,0,0
390074,68.8105,-399.697,0,0
391376,69.5041,-395.622,0,0
392677,71.3376,-391.963,0,0
393979,73.9022,-389.483,0,0
395280.7,76.5137,-388.261,0,0
396582.325,78.462,-388.227,0,0
397883.95,79.3574,-388.92,0,0
399185.575,78.761,-389.561,0,0
400006.6,77.9376,-389.385,0,0