File: Accelerated corrosion test data/2025-10-02_18-00-03/sample_4.csv
Frequency (Hz),Impedance (ohms),Phase (Radians),Temperature (C),Humidity (%)
10000.0,265.94,-11770.8,0,0
11301.625,237.237,-10428.4,0,0
12603.25,214.925,-9356.19,0,0
13904.875,195.694,-8483.16,0,0
15206.5,182.921,-7765,0,0
16508.125,187.518,-7154.35,0,0
17809.75,157.747,-6652.26,0,0
19111.375,146.868,-6200.07,0,0
20413.0,142.511,-5803.78,0,0
21714.625,145.475,-5460.18,0,0
23016.25,126.571,-5163.32,0,0
24317.875,118.157,-4880.96,0,0
25619.5,114.02,-4630.44,0,0
26921.1,107.623,-4403.61,0,0
28222.7,120.888,-4198.94,0,0
29524.4,113.577,-4023.81,0,0
30826,99.9863,-3853.31,0,0
32127.6,100.188,-3694.57,0,0
33429.2,91.269,-3554.3,0,0
34730.9,86.4265,-3417.52,0,0
36032.5,83.2439,-3290.97,0,0
37334.1,80.903,-3173.22,0,0
38635.7,78.6772,-3062.36,0,0
39937.4,78.1383,-2957.82,0,0
41239,80.6204,-2863.31,0,0
42540.6,79.5763,-2777.16,0,0
43842.225,74.8351,-2693.73,0,0
45143.85,72.1537,-2613.45,0,0
46445.475,71.5247,-2536.98,0,0
47747.1,70.9842,-2467.75,0,0
49048.725,67.0757,-2399.13,0,0
50350.35,65.5573,-2332.11,0,0
51651.975,65.2223,-2268.05,0,0
52953.6,67.2202,-2205.8,0,0
54255.225,74.7244,-2150.21,0,0
55556.85,72.6583,-2106.69,0,0
56858.475,66.858,-2053.67,0,0
58160.1,67.8187,-2001.61,0,0
59461.7,72.41,-1951.55,0,0
60763.3,81.9827,-1914.79,0,0
62065,71.2208,-1881.56,0,0
63366.6,65.7427,-1836.02,0,0
64668.2,65.8086,-1793.15,0,0
65969.8,67.9684,-1753.29,0,0
67271.5,71.7454,-1717.91,0,0
68573.1,74.3019,-1689.79,0,0
69874.7,66.7029,-1658.87,0,0
71176.3,66.0224,-1625.1,0,0
72478,59.9501,-1593.88,0,0
73779.6,58.7187,-1557.55,0,0
75081.2,60.8853,-1525.4,0,0
76382.825,63.0328,-1497.03,0,0
77684.45,65.7806,-1469.44,0,0
78986.075,64.1226,-1447.02,0,0
80287.7,61.1597,-1420.13,0,0
81589.325,60.448,-1394.15,0,0
82890.95,59.2811,-1369.07,0,0
84192.575,58.1886,-1344.28,0,0
85494.2,57.5871,-1320.08,0,0
86795.825,57.1681,-1296.69,0,0
88097.45,55.8301,-1274.51,0,0
89399.075,54.175,-1250.4,0,0
90700.7,54.0732,-1227.32,0,0
92002.3,54.3714,-1204.45,0,0
93303.9,55.3184,-1183.77,0,0
94605.6,54.1379,-1163.03,0,0
95907.2,53.9658,-1140.58,0,0
97208.8,54.9997,-1119.17,0,0
98510.4,56.4492,-1097.93,0,0
99812.1,59.4086,-1077.48,0,0
101114,64.0458,-1059.44,0,0
102415,62.6,-1045.18,0,0
103717,59.7632,-1022.64,0,0
105019,64.0777,-999.149,0,0
106320.175,70.7848,-979.481,0,0
107621.8,77.5991,-961.992,0,0
108923.425,86.0063,-945.957,0,0
110225.05,93.7205,-933.934,0,0
111526.675,99.7328,-923.545,0,0
112828.3,104.445,-914.237,0,0
114129.925,107.33,-906.099,0,0
115431.55,108.409,-898.349,0,0
116733.175,106.863,-890.115,0,0
118034.8,103.626,-878.762,0,0
119336.425,104.437,-863.766,0,0
120638.05,109.492,-858.472,0,0
121939.675,102.302,-851.331,0,0
123241,97.4446,-838.734,0,0
124543,94.2524,-825.983,0,0
125845,91.5497,-812.875,0,0
127146,88.4049,-800.744,0,0
128448,84.3247,-787.53,0,0
129749,79.1275,-772.436,0,0
131051,75.4925,-754.879,0,0
132353,73.7504,-736.589,0,0
133654,73.4531,-718.037,0,0
134956,74.5115,-699.434,0,0
136258,77.0177,-681.441,0,0
137559,80.1133,-664.346,0,0
138860.775,82.1147,-646.939,0,0
140162.4,85.4116,-628.232,0,0
141464.025,90.5689,-609.323,0,0
142765.65,96.5438,-591.033,0,0
144067.275,103.485,-572.409,0,0
145368.9,112.009,-553.737,0,0
146670.525,121.982,-535.316,0,0
147972.15,133.452,-517.655,0,0
149273.775,146.591,-499.54,0,0
150575.4,162.845,-482.345,0,0
151877.025,182.594,-467.716,0,0
153178.65,204.642,-457.478,0,0
154480,224.706,-453.821,0,0
155782,240.443,-450.368,0,0
157084,254.923,-447.137,0,0
158385,270.904,-440.44,0,0
159687,293.151,-439.214,0,0
160988,310.369,-447.748,0,0
162290,315.874,-455.049,0,0
163592,321.556,-452.669,0,0
164893,333.64,-446.281,0,0
166195,351.318,-444.189,0,0
167497,376.512,-447.481,0,0
168798,401.186,-469.077,0,0
170100,409.948,-500.478,0,0
171401.375,399.371,-534.934,0,0
172703.0,371.485,-553.822,0,0
174004.625,339.164,-552.913,0,0
175306.25,315.121,-537.747,0,0
176607.875,301.185,-515.444,0,0
177909.5,297.169,-492.564,0,0
179211.125,298.107,-473.014,0,0
180512.75,301.335,-454.728,0,0
181814.375,305.481,-437.059,0,0
183116.0,310.129,-418.116,0,0
184417.625,317.685,-395.974,0,0
185719.25,329.737,-372.268,0,0
187021,347.618,-347.917,0,0
188322,371.517,-323.985,0,0
189624,402.318,-302.18,0,0
190926,440.809,-284.513,0,0
192227,485.513,-274.916,0,0
193529,533.174,-274.76,0,0
194831,580.803,-282.599,0,0
196132,628.542,-297.654,0,0
197434,678.33,-320.211,0,0
198735,728.841,-357.339,0,0
200037,770.848,-411.474,0,0
201339,794.729,-475.592,0,0
202640.35,798.749,-539.441,0,0
203941.975,791.213,-592.177,0,0
205243.6,780.612,-640.993,0,0
206545.225,764.841,-688.083,0,0
207846.85,743.108,-735.849,0,0
209148.475,704.131,-777.505,0,0
210450.1,660.001,-799.019,0,0
211751.725,622.025,-808.074,0,0
213053.35,592.248,-807.649,0,0
214354.975,574.792,-804.396,0,0
215656.6,567.161,-809.927,0,0
216958.225,555.663,-824.444,0,0
218259.85,538.114,-840.257,0,0
219561,517.765,-852.77,0,0
220863,495.389,-866.896,0,0
222165,467.394,-878.098,0,0
223466,438.262,-882.804,0,0
224768,409.299,-884.962,0,0
226070,378.935,-883.991,0,0
227371,348.568,-876.085,0,0
228673,320.846,-863.706,0,0
229974,297.485,-846.313,0,0
231276,280.74,-826.756,0,0
232578,268.821,-808.752,0,0
233879,260.384,-791.493,0,0
235180.95,255.082,-776.62,0,0
236482.575,251.105,-764.396,0,0
237784.2,247.643,-753.106,0,0
239085.825,246.025,-743.917,0,0
240387.45,243.756,-737.616,0,0
241689.075,239.63,-732.843,0,0
242990.7,233.893,-727.61,0,0
244292.325,227.461,-721.366,0,0
245593.95,220.461,-713.811,0,0
246895.575,214.852,-704.553,0,0
248197.2,211.549,-695.977,0,0
249498.825,207.508,-689.239,0,0
250800,202.388,-681.716,0,0
252102,195.962,-674.232,0,0
253404,187.446,-662.425,0,0
254705,182.863,-646.33,0,0
256007,181.859,-628.521,0,0
257309,186.553,-609.647,0,0
258610,196.322,-592.613,0,0
259912,211.888,-578.246,0,0
261213,232.067,-570.571,0,0
262515,252.55,-570.932,0,0
263817,272.309,-578.167,0,0
265118,287.391,-591.513,0,0
266420,297.392,-611.208,0,0
267721.55,296.115,-633.335,0,0
269023.175,287.85,-650.481,0,0
270324.8,273.169,-662.725,0,0
271626.425,261.679,-665.183,0,0
272928.05,254.284,-670.927,0,0
274229.675,243.306,-678.118,0,0
275531.3,226.725,-684.005,0,0
276832.925,206.473,-681.935,0,0
278134.55,189.422,-671.603,0,0
279436.175,179.491,-656.91,0,0
280737.8,177.584,-644.628,0,0
282039.425,176.187,-637.249,0,0
283341,175.015,-628.983,0,0
284643,175.959,-624.575,0,0
285944,174.65,-621.321,0,0
287246,170.628,-617.802,0,0
288548,166.324,-608.429,0,0
289849,170.119,-596.192,0,0
291151,181.395,-590.241,0,0
292452,192.876,-593.541,0,0
293754,200.017,-604.119,0,0
295056,197.482,-618.26,0,0
296357,186.54,-627.572,0,0
297659,174.052,-629.856,0,0
298960.525,163.796,-628.113,0,0
300262.15,155.288,-625.541,0,0
301563.775,146.837,-622.225,0,0
302865.4,139.28,-616.93,0,0
304167.025,133.29,-610.904,0,0
305468.65,128.976,-604.432,0,0
306770.275,126.51,-598.549,0,0
308071.9,124.68,-594.246,0,0
309373.525,122.435,-590.94,0,0
310675.15,119.54,-587.853,0,0
311976.775,115.924,-584.541,0,0
313278.4,112.535,-580.136,0,0
314580,110.176,-575.645,0,0
315882,108.566,-571.512,0,0
317183,107.221,-568.571,0,0
318485,105.264,-566.558,0,0
319787,102.408,-564.909,0,0
321088,98.253,-563.283,0,0
322390,92.1631,-560.714,0,0
323691,85.7398,-555,0,0
324993,81.7593,-547.688,0,0
326295,79.3888,-540.702,0,0
327596,77.4041,-534.016,0,0
328898,76.2017,-527.002,0,0
330200,76.5626,-520.057,0,0
331501.125,78.2456,-514.697,0,0
332802.75,79.4974,-511.102,0,0
334104.375,79.5396,-508.415,0,0
335406.0,78.2946,-505.209,0,0
336707.625,76.6293,-501.06,0,0
338009.25,75.2667,-495.482,0,0
339310.875,75.4256,-489.104,0,0
340612.5,77.2545,-483.038,0,0
341914.125,80.9151,-477.876,0,0
343215.75,85.6154,-475.533,0,0
344517.375,88.772,-475.902,0,0
345819.0,89.3848,-476.893,0,0
347121,88.4252,-477.078,0,0
348422,86.5813,-476.346,0,0
349724,84.3999,-474.719,0,0
351025,82.1386,-472.073,0,0
352327,80.4143,-468.45,0,0
353629,79.7515,-464.309,0,0
354930,80.3596,-460.851,0,0
356232,80.6558,-458.591,0,0
357534,80.3142,-456.73,0,0
358835,78.6341,-454.346,0,0
360137,77.2368,-450.149,0,0
361438,77.3672,-445.72,0,0
362740.1,78.5973,-441.833,0,0
364041.725,79.9503,-439.11,0,0
365343.35,80.0403,-436.746,0,0
366644.975,80.0826,-432.915,0,0
367946.6,81.5482,-428.449,0,0
369248.225,84.7731,-424.304,0,0
370549.85,89.3106,-421.834,0,0
371851.475,94.4746,-421.595,0,0
373153.1,98.4271,-424.391,0,0
374454.725,98.6885,-428.205,0,0
375756.35,97.1584,-429.817,0,0
377057.975,95.8762,-430.445,0,0
378359.6,94.3234,-430.867,0,0
379661,92.8228,-430.681,0,0
380963,91.2482,-430.408,0,0
382264,89.7207,-429.501,0,0
383566,89.527,-429.367,0,0
384868,87.4829,-431.2,0,0
386169,82.9202,-431.506,0,0
387471,78.0804,-429.338,0,0
388773,74.6493,-424.779,0,0
390074,74.1995,-420.411,0,0
391376,74.9626,-418.514,0,0
392677,73.9897,-418.779,0,0
393979,70.4215,-418.212,0,0
395280.7,66.4092,-415.394,0,0
396582.325,63.2578,-411.392,0,0
397883.95,61.0819,-406.834,0,0
399185.575,59.6173,-402.238,0,0
400006.6,58.9167,-399.255,0,0