File: Accelerated corrosion test data/2025-10-02_18-00-03/sample_1.csv
Frequency (Hz),Impedance (ohms),Phase (Radians),Temperature (C),Humidity (%)
10000.0,244.001,-12145,0,0
11301.625,218.661,-10757.3,0,0
12603.25,201.933,-9662.78,0,0
13904.875,184.832,-8742.47,0,0
15206.5,184.454,-8020.7,0,0
16508.125,158.279,-7391.87,0,0
17809.75,150.986,-6860.02,0,0
19111.375,137.185,-6391.92,0,0
20413.0,159.151,-5954.72,0,0
21714.625,137.592,-5641.33,0,0
23016.25,123.476,-5334.35,0,0
24317.875,113.547,-5043.74,0,0
25619.5,106.513,-4781.23,0,0
26921.1,114.685,-4536.11,0,0
28222.7,111.196,-4331.13,0,0
29524.4,106.049,-4164.35,0,0
30826,101.688,-3979.67,0,0
32127.6,99.0495,-3821.8,0,0
33429.2,89.0743,-3678.72,0,0
34730.9,82.6342,-3537.52,0,0
36032.5,79.005,-3406.87,0,0
37334.1,75.4086,-3285.78,0,0
38635.7,73.2676,-3172.49,0,0
39937.4,73.0442,-3066.48,0,0
41239,72.6608,-2968.14,0,0
42540.6,72.397,-2876.55,0,0
43842.225,69.9207,-2789.14,0,0
45143.85,68.6723,-2708.07,0,0
46445.475,66.9747,-2632.57,0,0
47747.1,64.8434,-2559.53,0,0
49048.725,61.7061,-2489.45,0,0
50350.35,59.9022,-2423.05,0,0
51651.975,58.8174,-2359.97,0,0
52953.6,57.9676,-2299.19,0,0
54255.225,56.9354,-2242.39,0,0
55556.85,56.2739,-2187.37,0,0
56858.475,55.2317,-2134.59,0,0
58160.1,54.9735,-2084.28,0,0
59461.7,54.9248,-2036.58,0,0
60763.3,54.8458,-1990.94,0,0
62065,53.2858,-1947.09,0,0
63366.6,52.5429,-1903.51,0,0
64668.2,53.2307,-1861.98,0,0
65969.8,55.5502,-1824.19,0,0
67271.5,53.9827,-1787.33,0,0
68573.1,53.6321,-1752.24,0,0
69874.7,52.2783,-1718.66,0,0
71176.3,50.7561,-1684.2,0,0
72478,48.8757,-1650.62,0,0
73779.6,48.3823,-1617.25,0,0
75081.2,48.6462,-1585.24,0,0
76382.825,49.8338,-1554.33,0,0
77684.45,50.6505,-1524.95,0,0
78986.075,52.8603,-1497.59,0,0
80287.7,51.334,-1471.07,0,0
81589.325,52.2811,-1443.69,0,0
82890.95,52.1795,-1416.55,0,0
84192.575,54.0188,-1390.76,0,0
85494.2,55.5882,-1366.6,0,0
86795.825,56.6996,-1343.1,0,0
88097.45,57.217,-1320.26,0,0
89399.075,58.3599,-1295.73,0,0
90700.7,62.2612,-1272.54,0,0
92002.3,68.9171,-1251.84,0,0
93303.9,76.0626,-1235.52,0,0
94605.6,74.0695,-1227.46,0,0
95907.2,67.0185,-1209.38,0,0
97208.8,64.0871,-1188.37,0,0
98510.4,63.8523,-1168.26,0,0
99812.1,63.6895,-1147.73,0,0
101114,63.9577,-1128.67,0,0
102415,63.7581,-1106.5,0,0
103717,68.5235,-1085.28,0,0
105019,75.6971,-1067.54,0,0
106320.175,82.99,-1052.17,0,0
107621.8,89.0456,-1040.86,0,0
108923.425,93.7412,-1030.9,0,0
110225.05,94.5789,-1022.38,0,0
111526.675,94.3369,-1010.78,0,0
112828.3,95.3626,-1001.05,0,0
114129.925,93.478,-992.68,0,0
115431.55,89.2842,-982.248,0,0
116733.175,84.2315,-968.605,0,0
118034.8,81.118,-953.045,0,0
119336.425,80.3672,-937.211,0,0
120638.05,81.7757,-923.134,0,0
121939.675,80.9048,-911.07,0,0
123241,79.3887,-896.693,0,0
124543,79.6868,-881.77,0,0
125845,80.6583,-867.416,0,0
127146,82.1115,-853.439,0,0
128448,84.1606,-838.654,0,0
129749,87.4249,-824.734,0,0
131051,92.4504,-812.626,0,0
132353,96.2886,-802.546,0,0
133654,98.9956,-792.835,0,0
134956,100.528,-782.5,0,0
136258,103.147,-771.657,0,0
137559,107.025,-761.676,0,0
138860.775,108.994,-754.691,0,0
140162.4,108.776,-745.902,0,0
141464.025,109.283,-735.119,0,0
142765.65,110.718,-724.903,0,0
144067.275,111.522,-714.165,0,0
145368.9,113.296,-702.528,0,0
146670.525,116,-691.836,0,0
147972.15,118.578,-682.33,0,0
149273.775,119.923,-672.392,0,0
150575.4,121.355,-662.351,0,0
151877.025,121.174,-650.184,0,0
153178.65,123.004,-635.454,0,0
154480,126.521,-619.222,0,0
155782,135.468,-602.399,0,0
157084,147.619,-588.759,0,0
158385,159.687,-579.404,0,0
159687,172.119,-568.462,0,0
160988,190.147,-559.957,0,0
162290,207.047,-559.909,0,0
163592,221.343,-562.447,0,0
164893,232.767,-566.167,0,0
166195,244.399,-576.631,0,0
167497,245.463,-589.188,0,0
168798,240.297,-598.153,0,0
170100,230.849,-600.588,0,0
171401.375,224.91,-597.378,0,0
172703.0,218.617,-592.836,0,0
174004.625,215.278,-585.019,0,0
175306.25,216.678,-578.763,0,0
176607.875,216.259,-575.52,0,0
177909.5,214.404,-571.744,0,0
179211.125,212.274,-568.861,0,0
180512.75,206.722,-565.441,0,0
181814.375,199.676,-558.019,0,0
183116.0,191.898,-546.234,0,0
184417.625,188.755,-531.01,0,0
185719.25,188.445,-515.875,0,0
187021,190.063,-500.716,0,0
188322,192.705,-485.96,0,0
189624,197.159,-469.072,0,0
190926,203.829,-454.025,0,0
192227,210.946,-438.64,0,0
193529,218.597,-421.799,0,0
194831,229.116,-403.473,0,0
196132,243.914,-384.389,0,0
197434,263.451,-365.854,0,0
198735,285.125,-351.528,0,0
200037,308.614,-335.828,0,0
201339,339.816,-320.336,0,0
202640.35,378.547,-310.738,0,0
203941.975,423.657,-309.727,0,0
205243.6,473.908,-326.316,0,0
206545.225,512.045,-359.487,0,0
207846.85,533.842,-399.947,0,0
209148.475,540.554,-437.666,0,0
210450.1,534.675,-465.161,0,0
211751.725,526.553,-477.376,0,0
213053.35,531.716,-479.814,0,0
214354.975,544.883,-487.897,0,0
215656.6,558.271,-503.535,0,0
216958.225,568.894,-515.361,0,0
218259.85,587.495,-532.028,0,0
219561,607.941,-552.456,0,0
220863,630.12,-584.855,0,0
222165,646.455,-629.389,0,0
223466,650.415,-683.236,0,0
224768,637.336,-740.317,0,0
226070,608.092,-792.776,0,0
227371,565.938,-833.682,0,0
228673,518.374,-859.636,0,0
229974,470.051,-872.792,0,0
231276,426.186,-873.594,0,0
232578,391.143,-868.773,0,0
233879,360.691,-862.408,0,0
235180.95,333.801,-855.32,0,0
236482.575,309.538,-846.1,0,0
237784.2,288.582,-837.578,0,0
239085.825,266.991,-828.977,0,0
240387.45,246.774,-816.551,0,0
241689.075,230.508,-803.06,0,0
242990.7,217.111,-789.949,0,0
244292.325,205.513,-778.247,0,0
245593.95,193.759,-766.735,0,0
246895.575,182.821,-754.365,0,0
248197.2,174.487,-741.21,0,0
249498.825,166.486,-728.599,0,0
250800,158.648,-716.567,0,0
252102,152.842,-704.142,0,0
253404,147.762,-691.626,0,0
254705,144.295,-678.395,0,0
256007,142.677,-665.865,0,0
257309,142.214,-654.024,0,0
258610,142.971,-642.7,0,0
259912,145.638,-631.952,0,0
261213,149.786,-622.955,0,0
262515,154.875,-616.267,0,0
263817,160.884,-611.297,0,0
265118,167.425,-610.238,0,0
266420,171.67,-613.438,0,0
267721.55,170.557,-619.313,0,0
269023.175,163.013,-622.576,0,0
270324.8,153.659,-619.831,0,0
271626.425,146.485,-612.999,0,0
272928.05,142.885,-604.308,0,0
274229.675,141.996,-596.389,0,0
275531.3,142.727,-589.634,0,0
276832.925,144.598,-584.024,0,0
278134.55,147.079,-580.682,0,0
279436.175,149.158,-579.373,0,0
280737.8,148.813,-579.641,0,0
282039.425,146.514,-579.295,0,0
283341,142.62,-577.863,0,0
284643,138.858,-574.979,0,0
285944,134.254,-571.183,0,0
287246,129.447,-564.985,0,0
288548,127.164,-555.778,0,0
289849,129.488,-547.907,0,0
291151,131.646,-543.337,0,0
292452,132.722,-539.107,0,0
293754,133.302,-534.551,0,0
295056,134.075,-528.496,0,0
296357,137.806,-521.595,0,0
297659,143.327,-517.264,0,0
298960.525,149.039,-514.253,0,0
300262.15,155.463,-513.076,0,0
301563.775,161.508,-512.995,0,0
302865.4,167.713,-515.115,0,0
304167.025,172.936,-519.443,0,0
305468.65,175.77,-524.421,0,0
306770.275,178.214,-529.96,0,0
308071.9,179.073,-537.002,0,0
309373.525,177.317,-544.349,0,0
310675.15,173.893,-551.343,0,0
311976.775,168.196,-557.865,0,0
313278.4,160.211,-562.452,0,0
314580,151.914,-564.475,0,0
315882,143.91,-565.341,0,0
317183,135.497,-564.932,0,0
318485,127.646,-562.654,0,0
319787,120.77,-559.868,0,0
321088,113.945,-556.075,0,0
322390,107.749,-551,0,0
323691,103.272,-544.976,0,0
324993,100.749,-539.098,0,0
326295,99.4727,-534.399,0,0
327596,98.6118,-530.686,0,0
328898,97.6974,-528.225,0,0
330200,96.238,-526.416,0,0
331501.125,94.0391,-525.121,0,0
332802.75,90.8193,-523.7,0,0
334104.375,87.0462,-521.594,0,0
335406.0,83.1021,-518.801,0,0
336707.625,79.4132,-515.171,0,0
338009.25,76.1055,-511.254,0,0
339310.875,73.1495,-507.088,0,0
340612.5,70.5992,-502.724,0,0
341914.125,68.5479,-498.674,0,0
343215.75,66.4253,-494.492,0,0
344517.375,64.3084,-490.367,0,0
345819.0,62.3381,-485.956,0,0
347121,60.611,-481.362,0,0
348422,59.2309,-476.585,0,0
349724,58.2501,-471.709,0,0
351025,57.8432,-467.106,0,0
352327,57.5781,-462.714,0,0
353629,57.4242,-458.517,0,0
354930,57.4829,-454.306,0,0
356232,57.8573,-450.397,0,0
357534,58.3011,-446.839,0,0
358835,58.6195,-443.55,0,0
360137,58.7609,-440.067,0,0
361438,59.1807,-436.786,0,0
362740.1,59.4125,-433.613,0,0
364041.725,59.602,-430.303,0,0
365343.35,59.9778,-426.804,0,0
366644.975,60.4898,-423.363,0,0
367946.6,60.9053,-419.701,0,0
369248.225,62.0386,-415.262,0,0
370549.85,64.5224,-411.272,0,0
371851.475,67.6193,-408.263,0,0
373153.1,71.037,-406.342,0,0
374454.725,74.1702,-405.738,0,0
375756.35,76.1467,-405.709,0,0
377057.975,77.8223,-405.52,0,0
378359.6,79.2992,-405.71,0,0
379661,80.1797,-406.18,0,0
380963,81.1018,-406.442,0,0
382264,81.8776,-408.012,0,0
383566,80.7567,-409.93,0,0
384868,78.3622,-410.959,0,0
386169,75.5947,-410.899,0,0
387471,72.5356,-409.823,0,0
388773,70.0204,-407.538,0,0
390074,68.5983,-405.077,0,0
391376,67.6534,-403.152,0,0
392677,66.3618,-401.811,0,0
393979,64.2932,-400.124,0,0
395280.7,62.1099,-397.765,0,0
396582.325,60.279,-394.725,0,0
397883.95,58.892,-391.342,0,0
399185.575,57.7609,-387.805,0,0
400006.6,57.3562,-385.451,0,0