File: Accelerated corrosion test data/2025-10-02_18-00-03/sample_6.csv
Frequency (Hz),Impedance (ohms),Phase (Radians),Temperature (C),Humidity (%)
10000.0,4315.21,-6237.53,0,0
11301.625,3696.78,-5912.52,0,0
12603.25,3198.58,-5593.11,0,0
13904.875,2792.08,-5295.82,0,0
15206.5,2457.1,-5013.06,0,0
16508.125,2177.66,-4751.25,0,0
17809.75,1944.09,-4510.4,0,0
19111.375,1747.49,-4286.13,0,0
20413.0,1578.02,-4082.13,0,0
21714.625,1432.07,-3892.62,0,0
23016.25,1310.76,-3713.07,0,0
24317.875,1201.45,-3560.22,0,0
25619.5,1104.75,-3410.59,0,0
26921.1,1019.25,-3270.52,0,0
28222.7,946.779,-3143.27,0,0
29524.4,879.525,-3021.08,0,0
30826,822.514,-2909,0,0
32127.6,771.548,-2801.74,0,0
33429.2,731.528,-2705.05,0,0
34730.9,689.664,-2619.8,0,0
36032.5,650.709,-2539.86,0,0
37334.1,610.514,-2459.96,0,0
38635.7,575.77,-2381.75,0,0
39937.4,546.689,-2307.42,0,0
41239,519.674,-2238.47,0,0
42540.6,495.647,-2174.24,0,0
43842.225,474.752,-2108.88,0,0
45143.85,457.075,-2047.41,0,0
46445.475,445.525,-1993.35,0,0
47747.1,432.983,-1944.34,0,0
49048.725,423.18,-1901.73,0,0
50350.35,403.768,-1868.16,0,0
51651.975,380.44,-1825.26,0,0
52953.6,363.404,-1781.8,0,0
54255.225,345.418,-1740.61,0,0
55556.85,328.628,-1700.18,0,0
56858.475,315.035,-1654.3,0,0
58160.1,309.34,-1616.8,0,0
59461.7,299.319,-1584.38,0,0
60763.3,286.575,-1551.32,0,0
62065,273.56,-1515.81,0,0
63366.6,268.777,-1478.56,0,0
64668.2,261.894,-1453.1,0,0
65969.8,252.618,-1423.69,0,0
67271.5,240.964,-1394.89,0,0
68573.1,231.499,-1362.92,0,0
69874.7,224.34,-1331,0,0
71176.3,220.252,-1299.63,0,0
72478,218.496,-1270.54,0,0
73779.6,218.111,-1244.57,0,0
75081.2,216.742,-1220.8,0,0
76382.825,215.282,-1198.5,0,0
77684.45,213.508,-1176.15,0,0
78986.075,212.93,-1155.38,0,0
80287.7,212.118,-1136.69,0,0
81589.325,209.8,-1119.23,0,0
82890.95,206.427,-1102.17,0,0
84192.575,201.763,-1084.19,0,0
85494.2,198.141,-1064.64,0,0
86795.825,196.384,-1045.82,0,0
88097.45,194.743,-1028.53,0,0
89399.075,193.45,-1011.37,0,0
90700.7,192.704,-995.367,0,0
92002.3,189.954,-980.537,0,0
93303.9,188.276,-963.937,0,0
94605.6,188.597,-946.528,0,0
95907.2,189.595,-933.617,0,0
97208.8,187.895,-921.676,0,0
98510.4,186.064,-904.851,0,0
99812.1,192.346,-892.639,0,0
101114,191.154,-887.93,0,0
102415,187.373,-877.029,0,0
103717,184.117,-871.279,0,0
105019,172.243,-863.639,0,0
106320.175,159.524,-843.769,0,0
107621.8,156.903,-820.669,0,0
108923.425,159.806,-802.76,0,0
110225.05,162.163,-787.34,0,0
111526.675,165.108,-772.672,0,0
112828.3,168.822,-759.973,0,0
114129.925,173.337,-749.04,0,0
115431.55,176.269,-739.61,0,0
116733.175,180.135,-732.483,0,0
118034.8,177.605,-725.724,0,0
119336.425,177.806,-712.949,0,0
120638.05,185.479,-701.553,0,0
121939.675,188.952,-703.445,0,0
123241,183.956,-698.585,0,0
124543,180.873,-691.957,0,0
125845,176.654,-683.746,0,0
127146,172.616,-674.112,0,0
128448,171.847,-661.951,0,0
129749,174.387,-653.744,0,0
131051,174.481,-648.323,0,0
132353,172.207,-643.453,0,0
133654,167.361,-638.017,0,0
134956,160.986,-629.831,0,0
136258,154.913,-619.047,0,0
137559,150.294,-606.572,0,0
138860.775,147.151,-593.259,0,0
140162.4,145.621,-579.496,0,0
141464.025,145.718,-566.02,0,0
142765.65,146.028,-553.376,0,0
144067.275,148.102,-539.802,0,0
145368.9,151.827,-529.697,0,0
146670.525,152.492,-520.486,0,0
147972.15,152.051,-510.04,0,0
149273.775,151.496,-497.606,0,0
150575.4,152.078,-482.851,0,0
151877.025,156.023,-466.062,0,0
153178.65,166.649,-453.112,0,0
154480,172.835,-445.628,0,0
155782,178.65,-433.982,0,0
157084,189.601,-426.397,0,0
158385,194.983,-423.789,0,0
159687,197.26,-418.594,0,0
160988,199.584,-411.96,0,0
162290,201.182,-405.62,0,0
163592,202.303,-397.477,0,0
164893,201.985,-387.958,0,0
166195,204.191,-375.564,0,0
167497,207.848,-364.234,0,0
168798,212.056,-352.464,0,0
170100,216.852,-341.41,0,0
171401.375,220.993,-329.592,0,0
172703.0,225.743,-317.128,0,0
174004.625,230.222,-303.721,0,0
175306.25,235.273,-287.921,0,0
176607.875,242.47,-269.712,0,0
177909.5,253.021,-250.072,0,0
179211.125,267.665,-229.234,0,0
180512.75,287.942,-210.639,0,0
181814.375,310.883,-195.889,0,0
183116.0,334.334,-185.282,0,0
184417.625,357.891,-176.738,0,0
185719.25,379.172,-172.64,0,0
187021,394.228,-167.288,0,0
188322,405.928,-152.051,0,0
189624,424.573,-125.848,0,0
190926,460.005,-92.6641,0,0
192227,514.24,-67.4111,0,0
193529,577.297,-52.116,0,0
194831,654.415,-49.6043,0,0
196132,736.454,-69.3886,0,0
197434,815.186,-108.678,0,0
198735,888.556,-162.98,0,0
200037,955.651,-236.777,0,0
201339,1010.23,-328.73,0,0
202640.35,1042.34,-445.703,0,0
203941.975,1030.7,-565.993,0,0
205243.6,991.183,-668.886,0,0
206545.225,931.923,-751.776,0,0
207846.85,864.629,-810.195,0,0
209148.475,799.763,-848.987,0,0
210450.1,742.315,-877.095,0,0
211751.725,687.377,-905.71,0,0
213053.35,622.209,-926.312,0,0
214354.975,557.201,-929.61,0,0
215656.6,500.104,-920.722,0,0
216958.225,452.455,-905.346,0,0
218259.85,411.919,-887.074,0,0
219561,378.019,-866.91,0,0
220863,349.483,-846.039,0,0
222165,324.984,-824.485,0,0
223466,304.637,-801.807,0,0
224768,289.722,-778.455,0,0
226070,280.982,-755.677,0,0
227371,278.569,-737.537,0,0
228673,278.22,-727.253,0,0
229974,273.132,-723.013,0,0
231276,262.126,-717.682,0,0
232578,249.483,-708.178,0,0
233879,238.461,-695.117,0,0
235180.95,230.637,-680.47,0,0
236482.575,225.409,-665.869,0,0
237784.2,222.399,-651.783,0,0
239085.825,221.245,-638.507,0,0
240387.45,221.555,-626.275,0,0
241689.075,222.844,-614.818,0,0
242990.7,225.324,-604.066,0,0
244292.325,229.045,-593.977,0,0
245593.95,233.974,-584.491,0,0
246895.575,241.299,-575.321,0,0
248197.2,252.063,-568.559,0,0
249498.825,263.874,-566.692,0,0
250800,273.781,-567.102,0,0
252102,286.389,-567.958,0,0
253404,302.093,-575.603,0,0
254705,314.665,-592.736,0,0
256007,318.207,-615.694,0,0
257309,312.116,-638.015,0,0
258610,299.147,-656.587,0,0
259912,281.888,-670.047,0,0
261213,262.577,-677.934,0,0
262515,243.581,-680.666,0,0
263817,226.36,-680.108,0,0
265118,210.533,-677.294,0,0
266420,196.307,-672.822,0,0
267721.55,183.734,-667.132,0,0
269023.175,172.541,-660.845,0,0
270324.8,162.501,-654.368,0,0
271626.425,153.304,-647.47,0,0
272928.05,144.948,-640.398,0,0
274229.675,137.286,-633.006,0,0
275531.3,130.434,-625.386,0,0
276832.925,124.319,-617.596,0,0
278134.55,118.919,-609.739,0,0
279436.175,114.255,-601.612,0,0
280737.8,111.049,-593.46,0,0
282039.425,108.749,-586.527,0,0
283341,106.255,-580.205,0,0
284643,104.003,-573.905,0,0
285944,102.371,-567.926,0,0
287246,100.927,-562.969,0,0
288548,98.8955,-558.048,0,0
289849,97.2045,-553.048,0,0
291151,95.7359,-548.399,0,0
292452,94.4259,-544.187,0,0
293754,92.8789,-540.589,0,0
295056,90.5251,-537.289,0,0
296357,87.3665,-533.355,0,0
297659,84.1856,-528.152,0,0
298960.525,82.457,-522.017,0,0
300262.15,81.9831,-516.82,0,0
301563.775,81.4956,-512.52,0,0
302865.4,80.7564,-508.611,0,0
304167.025,79.7606,-504.732,0,0
305468.65,79.0771,-500.375,0,0
306770.275,79.4567,-496.686,0,0
308071.9,79.3309,-494.271,0,0
309373.525,78.2514,-491.847,0,0
310675.15,77.031,-489.272,0,0
311976.775,75.4924,-486.634,0,0
313278.4,73.8798,-483.773,0,0
314580,72.2701,-480.657,0,0
315882,70.7752,-477.469,0,0
317183,69.3267,-474.339,0,0
318485,67.9195,-471.228,0,0
319787,66.3703,-468.05,0,0
321088,64.7663,-464.653,0,0
322390,63.495,-461.072,0,0
323691,62.4885,-457.638,0,0
324993,61.405,-454.263,0,0
326295,60.254,-450.952,0,0
327596,59.2372,-447.525,0,0
328898,58.321,-444.134,0,0
330200,57.4923,-440.752,0,0
331501.125,56.6555,-437.441,0,0
332802.75,55.9148,-433.975,0,0
334104.375,55.2988,-430.596,0,0
335406.0,54.8413,-427.242,0,0
336707.625,54.4904,-424.046,0,0
338009.25,54.1238,-420.947,0,0
339310.875,53.777,-417.812,0,0
340612.5,53.5275,-414.692,0,0
341914.125,53.3697,-411.637,0,0
343215.75,53.5502,-408.766,0,0
344517.375,53.585,-406.539,0,0
345819.0,52.878,-404.173,0,0
347121,52.2272,-401.336,0,0
348422,51.813,-398.399,0,0
349724,51.5431,-395.518,0,0
351025,51.4501,-392.636,0,0
352327,51.4482,-389.862,0,0
353629,51.5455,-387.315,0,0
354930,51.4754,-384.904,0,0
356232,51.2761,-382.423,0,0
357534,51.2588,-379.848,0,0
358835,51.389,-377.41,0,0
360137,51.5057,-375.228,0,0
361438,51.3864,-373.213,0,0
362740.1,51.0582,-371.041,0,0
364041.725,50.7155,-368.808,0,0
365343.35,50.3631,-366.432,0,0
366644.975,50.1985,-364.006,0,0
367946.6,49.9977,-361.607,0,0
369248.225,49.9136,-359.221,0,0
370549.85,49.871,-356.802,0,0
371851.475,50.0157,-354.442,0,0
373153.1,50.326,-352.313,0,0
374454.725,50.426,-350.666,0,0
375756.35,49.979,-348.994,0,0
377057.975,49.4738,-346.993,0,0
378359.6,48.9371,-344.891,0,0
379661,48.2753,-342.664,0,0
380963,47.6206,-340.08,0,0
382264,47.2814,-337.194,0,0
383566,47.6083,-334.565,0,0
384868,47.61,-332.603,0,0
386169,47.2514,-330.421,0,0
387471,46.8756,-327.959,0,0
388773,46.5708,-325.383,0,0
390074,46.413,-322.748,0,0
391376,46.3184,-320.101,0,0
392677,46.2774,-317.478,0,0
393979,46.3078,-314.815,0,0
395280.7,46.3715,-312.146,0,0
396582.325,46.5006,-309.415,0,0
397883.95,46.6779,-306.71,0,0
399185.575,46.9577,-304.012,0,0
400006.6,47.1503,-302.292,0,0