File: Accelerated corrosion test data/2025-10-03_18-00-02/sample_1.csv
Frequency (Hz),Impedance (ohms),Phase (Radians),Temperature (C),Humidity (%)
10000.0,302.257,-12128.3,0,0
11301.625,275.304,-10743.3,0,0
12603.25,211.74,-9650.4,0,0
13904.875,187.212,-8730.99,0,0
15206.5,191.817,-8013.64,0,0
16508.125,165.237,-7383.78,0,0
17809.75,158.406,-6851.12,0,0
19111.375,140.932,-6383.64,0,0
20413.0,169.162,-5947.29,0,0
21714.625,141.206,-5633.73,0,0
23016.25,124.13,-5327.21,0,0
24317.875,112.778,-5037.3,0,0
25619.5,106.029,-4775.71,0,0
26921.1,115.764,-4530.79,0,0
28222.7,113.248,-4325.65,0,0
29524.4,109.143,-4159.08,0,0
30826,104.107,-3975.42,0,0
32127.6,100.169,-3817.41,0,0
33429.2,89.8935,-3674.23,0,0
34730.9,85.4421,-3533.42,0,0
36032.5,79.8717,-3403.09,0,0
37334.1,75.1074,-3281.53,0,0
38635.7,72.9356,-3168.39,0,0
39937.4,72.2072,-3062.76,0,0
41239,73.7072,-2964.28,0,0
42540.6,71.1681,-2872.98,0,0
43842.225,67.7317,-2785.52,0,0
45143.85,68.8583,-2704.77,0,0
46445.475,67.3443,-2629.11,0,0
47747.1,63.8395,-2556.09,0,0
49048.725,63.0278,-2486.08,0,0
50350.35,59.7999,-2419.87,0,0
51651.975,58.7044,-2356.84,0,0
52953.6,57.9129,-2295.96,0,0
54255.225,56.8225,-2239.49,0,0
55556.85,56.5525,-2184.63,0,0
56858.475,55.5416,-2132,0,0
58160.1,55.3427,-2081.63,0,0
59461.7,55.5076,-2034.07,0,0
60763.3,55.7783,-1988.52,0,0
62065,54.0919,-1944.66,0,0
63366.6,53.5493,-1901.16,0,0
64668.2,54.5491,-1859.52,0,0
65969.8,56.5627,-1822.04,0,0
67271.5,54.4465,-1785.04,0,0
68573.1,53.9198,-1750.02,0,0
69874.7,52.8325,-1716.32,0,0
71176.3,51.4437,-1682.13,0,0
72478,49.7857,-1648.58,0,0
73779.6,48.5647,-1615.06,0,0
75081.2,49.2696,-1583.27,0,0
76382.825,50.4063,-1552.42,0,0
77684.45,50.9707,-1522.88,0,0
78986.075,52.7402,-1495.73,0,0
80287.7,51.614,-1469.09,0,0
81589.325,51.4347,-1441.76,0,0
82890.95,51.7612,-1414.6,0,0
84192.575,53.8562,-1388.87,0,0
85494.2,55.6014,-1364.87,0,0
86795.825,56.7471,-1341.33,0,0
88097.45,57.2585,-1318.47,0,0
89399.075,58.5358,-1294.24,0,0
90700.7,62.5526,-1270.77,0,0
92002.3,68.9158,-1250.26,0,0
93303.9,76.4182,-1234.04,0,0
94605.6,74.1598,-1225.92,0,0
95907.2,66.9033,-1207.72,0,0
97208.8,64.089,-1186.72,0,0
98510.4,63.6593,-1166.68,0,0
99812.1,63.713,-1146.23,0,0
101114,63.8702,-1127.21,0,0
102415,63.8042,-1104.9,0,0
103717,68.4267,-1083.77,0,0
105019,75.6923,-1066.06,0,0
106320.175,82.9871,-1050.91,0,0
107621.8,89.1197,-1039.61,0,0
108923.425,93.848,-1029.75,0,0
110225.05,94.5401,-1021.37,0,0
111526.675,94.1092,-1010.12,0,0
112828.3,94.795,-1000.12,0,0
114129.925,92.7758,-991.608,0,0
115431.55,88.3504,-980.996,0,0
116733.175,83.6731,-967.157,0,0
118034.8,80.4962,-951.539,0,0
119336.425,80.2763,-935.669,0,0
120638.05,81.387,-921.66,0,0
121939.675,80.8015,-909.568,0,0
123241,79.3811,-895.186,0,0
124543,79.7232,-880.398,0,0
125845,80.7728,-866.105,0,0
127146,81.9528,-852.14,0,0
128448,84.2762,-837.583,0,0
129749,87.5498,-823.688,0,0
131051,92.5242,-811.624,0,0
132353,96.1533,-801.627,0,0
133654,98.8856,-791.939,0,0
134956,100.359,-781.611,0,0
136258,102.922,-770.81,0,0
137559,106.607,-760.669,0,0
138860.775,108.704,-753.467,0,0
140162.4,108.475,-744.652,0,0
141464.025,109.175,-733.911,0,0
142765.65,110.554,-723.823,0,0
144067.275,110.92,-713.157,0,0
145368.9,112.964,-701.554,0,0
146670.525,115.759,-690.744,0,0
147972.15,118.117,-681.089,0,0
149273.775,119.661,-671.047,0,0
150575.4,121.209,-660.988,0,0
151877.025,120.982,-648.701,0,0
153178.65,123.052,-633.888,0,0
154480,126.624,-617.587,0,0
155782,135.842,-601.026,0,0
157084,148.068,-587.396,0,0
158385,160.152,-578.193,0,0
159687,172.521,-567.327,0,0
160988,190.895,-558.972,0,0
162290,207.943,-559.238,0,0
163592,221.965,-562.325,0,0
164893,233.314,-566.164,0,0
166195,244.237,-576.973,0,0
167497,245.089,-589.203,0,0
168798,239.407,-598.145,0,0
170100,229.701,-600.028,0,0
171401.375,223.76,-596.448,0,0
172703.0,217.808,-591.694,0,0
174004.625,214.498,-583.658,0,0
175306.25,216.021,-577.545,0,0
176607.875,215.753,-573.963,0,0
177909.5,214.147,-570.24,0,0
179211.125,211.941,-567.467,0,0
180512.75,206.073,-564.164,0,0
181814.375,198.997,-556.373,0,0
183116.0,191.597,-544.344,0,0
184417.625,188.598,-529.118,0,0
185719.25,188.487,-513.807,0,0
187021,190.186,-498.595,0,0
188322,192.856,-483.811,0,0
189624,197.662,-467.031,0,0
190926,204.405,-452.08,0,0
192227,211.546,-436.789,0,0
193529,219.222,-419.644,0,0
194831,229.951,-401.208,0,0
196132,244.955,-382.235,0,0
197434,264.996,-363.905,0,0
198735,286.813,-349.458,0,0
200037,310.773,-333.914,0,0
201339,342.754,-318.778,0,0
202640.35,381.871,-309.848,0,0
203941.975,427.28,-309.667,0,0
205243.6,477.075,-327.666,0,0
206545.225,513.865,-361.51,0,0
207846.85,533.907,-401.727,0,0
209148.475,540.151,-438.664,0,0
210450.1,534.458,-465.469,0,0
211751.725,526.132,-477.124,0,0
213053.35,531.802,-478.875,0,0
214354.975,545.747,-486.547,0,0
215656.6,559.305,-502.536,0,0
216958.225,570.765,-513.961,0,0
218259.85,589.878,-530.977,0,0
219561,611.412,-552.681,0,0
220863,634.007,-586.075,0,0
222165,650.007,-632.464,0,0
223466,652.898,-687.779,0,0
224768,638.215,-744.666,0,0
226070,607.889,-796.862,0,0
227371,564.697,-837.43,0,0
228673,516.269,-863.111,0,0
229974,467.315,-875.272,0,0
231276,423.803,-875.444,0,0
232578,388.588,-870.337,0,0
233879,358.052,-863.492,0,0
235180.95,331.225,-855.915,0,0
236482.575,307.014,-846.492,0,0
237784.2,286.19,-837.7,0,0
239085.825,264.812,-828.721,0,0
240387.45,244.648,-816.135,0,0
241689.075,228.737,-802.557,0,0
242990.7,215.569,-789.421,0,0
244292.325,203.875,-777.68,0,0
245593.95,192.153,-766.153,0,0
246895.575,181.338,-753.549,0,0
248197.2,172.298,-740.819,0,0
249498.825,164.493,-728.172,0,0
250800,157.719,-715.539,0,0
252102,152.085,-703.098,0,0
253404,147.175,-690.57,0,0
254705,143.819,-677.35,0,0
256007,142.352,-664.924,0,0
257309,141.856,-653.105,0,0
258610,142.714,-641.686,0,0
259912,145.463,-631.018,0,0
261213,149.849,-622.167,0,0
262515,154.907,-615.549,0,0
263817,161.069,-610.749,0,0
265118,167.583,-610.117,0,0
266420,171.423,-613.56,0,0
267721.55,169.705,-619.205,0,0
269023.175,162.104,-621.909,0,0
270324.8,153.023,-618.844,0,0
271626.425,146.131,-611.791,0,0
272928.05,142.772,-603.188,0,0
274229.675,142.27,-595.244,0,0
275531.3,143.283,-588.864,0,0
276832.925,145.166,-583.542,0,0
278134.55,147.467,-580.552,0,0
279436.175,149.43,-579.448,0,0
280737.8,148.696,-579.795,0,0
282039.425,146.216,-579.319,0,0
283341,142.242,-577.797,0,0
284643,138.415,-574.767,0,0
285944,133.775,-570.881,0,0
287246,129.024,-564.548,0,0
288548,126.836,-555.355,0,0
289849,128.882,-547.497,0,0
291151,131.178,-542.542,0,0
292452,132.568,-538.374,0,0
293754,133.177,-533.918,0,0
295056,133.956,-527.797,0,0
296357,137.802,-520.933,0,0
297659,143.469,-516.581,0,0
298960.525,149.38,-513.672,0,0
300262.15,155.73,-512.751,0,0
301563.775,161.758,-512.732,0,0
302865.4,168.139,-514.944,0,0
304167.025,173.192,-519.532,0,0
305468.65,176.031,-524.494,0,0
306770.275,178.418,-530.193,0,0
308071.9,179.063,-537.313,0,0
309373.525,177.331,-544.889,0,0
310675.15,173.637,-551.857,0,0
311976.775,167.517,-558.489,0,0
313278.4,159.258,-562.858,0,0
314580,150.89,-564.576,0,0
315882,142.997,-565.197,0,0
317183,134.537,-564.538,0,0
318485,126.869,-562.145,0,0
319787,119.964,-559.286,0,0
321088,113.254,-555.444,0,0
322390,107.285,-550.399,0,0
323691,102.785,-544.389,0,0
324993,100.328,-538.507,0,0
326295,99.1007,-533.86,0,0
327596,98.2805,-530.199,0,0
328898,97.389,-527.761,0,0
330200,95.8866,-525.989,0,0
331501.125,93.6062,-524.725,0,0
332802.75,90.387,-523.317,0,0
334104.375,86.5671,-521.157,0,0
335406.0,82.497,-518.23,0,0
336707.625,78.8721,-514.485,0,0
338009.25,75.6706,-510.657,0,0
339310.875,72.7648,-506.435,0,0
340612.5,70.3387,-502.217,0,0
341914.125,68.1885,-498.004,0,0
343215.75,66.0723,-493.93,0,0
344517.375,64.0562,-489.674,0,0
345819.0,61.9927,-485.281,0,0
347121,60.335,-480.669,0,0
348422,58.954,-475.931,0,0
349724,58.0638,-471.031,0,0
351025,57.6397,-466.375,0,0
352327,57.4764,-461.988,0,0
353629,57.3811,-457.808,0,0
354930,57.4686,-453.65,0,0
356232,57.8938,-449.71,0,0
357534,58.3844,-446.204,0,0
358835,58.6955,-442.982,0,0
360137,58.8745,-439.586,0,0
361438,59.2389,-436.343,0,0
362740.1,59.476,-433.141,0,0
364041.725,59.6659,-429.814,0,0
365343.35,60.0481,-426.309,0,0
366644.975,60.5668,-422.968,0,0
367946.6,60.9448,-419.282,0,0
369248.225,62.1,-414.844,0,0
370549.85,64.6827,-410.875,0,0
371851.475,67.842,-407.895,0,0
373153.1,71.3464,-406.127,0,0
374454.725,74.3364,-405.68,0,0
375756.35,76.3112,-405.647,0,0
377057.975,77.8854,-405.574,0,0
378359.6,79.2866,-405.824,0,0
379661,80.0447,-406.212,0,0
380963,80.9487,-406.6,0,0
382264,81.4538,-408.136,0,0
383566,80.2822,-409.994,0,0
384868,77.8485,-410.858,0,0
386169,75.0507,-410.715,0,0
387471,71.9436,-409.508,0,0
388773,69.5412,-407.15,0,0
390074,68.1672,-404.573,0,0
391376,67.312,-402.667,0,0
392677,66.0361,-401.254,0,0
393979,64.0684,-399.61,0,0
395280.7,61.9398,-397.187,0,0
396582.325,60.0756,-394.207,0,0
397883.95,58.585,-390.854,0,0
399185.575,57.6301,-387.265,0,0
400006.6,57.168,-384.978,0,0