File: Accelerated corrosion test data/2025-10-03_18-00-02/sample_6.csv
Frequency (Hz),Impedance (ohms),Phase (Radians),Temperature (C),Humidity (%)
10000.0,4307.09,-6204.8,0,0
11301.625,3690.76,-5884.84,0,0
12603.25,3194.28,-5567.8,0,0
13904.875,2788.84,-5273.07,0,0
15206.5,2454.64,-4992,0,0
16508.125,2176.05,-4731.97,0,0
17809.75,1942.53,-4492.02,0,0
19111.375,1746.7,-4269.99,0,0
20413.0,1577.5,-4067.89,0,0
21714.625,1432.06,-3878.46,0,0
23016.25,1311.26,-3699.49,0,0
24317.875,1201.53,-3547.81,0,0
25619.5,1104.51,-3398.88,0,0
26921.1,1019.62,-3259.1,0,0
28222.7,947.115,-3132.35,0,0
29524.4,880.515,-3010.83,0,0
30826,822.693,-2900.22,0,0
32127.6,770.945,-2793.22,0,0
33429.2,729.526,-2695.87,0,0
34730.9,687.818,-2607.88,0,0
36032.5,652.25,-2526.7,0,0
37334.1,614.87,-2450.01,0,0
38635.7,579.475,-2374.45,0,0
39937.4,549.27,-2301.4,0,0
41239,521.011,-2232.02,0,0
42540.6,497.495,-2167.79,0,0
43842.225,476.313,-2102.76,0,0
45143.85,459.127,-2041.81,0,0
46445.475,447.264,-1988.73,0,0
47747.1,434.102,-1941.08,0,0
49048.725,422.486,-1898.18,0,0
50350.35,403.444,-1863.32,0,0
51651.975,380.319,-1820.83,0,0
52953.6,363.035,-1777.5,0,0
54255.225,344.762,-1736.25,0,0
55556.85,327.823,-1695.05,0,0
56858.475,314.973,-1649.62,0,0
58160.1,308.954,-1612.28,0,0
59461.7,299.026,-1579.52,0,0
60763.3,286.577,-1546.25,0,0
62065,273.975,-1511.12,0,0
63366.6,269.09,-1474.62,0,0
64668.2,262.191,-1448.86,0,0
65969.8,252.752,-1419.32,0,0
67271.5,241.555,-1390.72,0,0
68573.1,232.208,-1358.73,0,0
69874.7,225.226,-1327.08,0,0
71176.3,221.318,-1295.89,0,0
72478,219.542,-1267.32,0,0
73779.6,219.049,-1241.91,0,0
75081.2,217.425,-1218.1,0,0
76382.825,216.094,-1195.78,0,0
77684.45,214.535,-1174.12,0,0
78986.075,213.442,-1154.08,0,0
80287.7,211.733,-1135.53,0,0
81589.325,208.806,-1117.81,0,0
82890.95,205.068,-1100.18,0,0
84192.575,200.487,-1081.78,0,0
85494.2,197.09,-1062.04,0,0
86795.825,195.511,-1043.27,0,0
88097.45,193.635,-1025.78,0,0
89399.075,192.521,-1008.56,0,0
90700.7,191.82,-992.662,0,0
92002.3,189.291,-977.568,0,0
93303.9,187.597,-961.425,0,0
94605.6,187.545,-943.867,0,0
95907.2,188.65,-930.453,0,0
97208.8,187.526,-918.579,0,0
98510.4,186.123,-902.229,0,0
99812.1,191.976,-890.819,0,0
101114,190.594,-885.385,0,0
102415,187.365,-875.263,0,0
103717,183.17,-869.523,0,0
105019,171.159,-861.495,0,0
106320.175,158.462,-841.6,0,0
107621.8,155.908,-818.958,0,0
108923.425,158.491,-800.876,0,0
110225.05,160.744,-785.203,0,0
111526.675,163.68,-770.54,0,0
112828.3,167.165,-757.771,0,0
114129.925,171.455,-746.714,0,0
115431.55,174.234,-737.246,0,0
116733.175,178.135,-729.278,0,0
118034.8,176.147,-722.868,0,0
119336.425,176.156,-710.316,0,0
120638.05,183.101,-698.548,0,0
121939.675,186.402,-698.949,0,0
123241,182.323,-693.933,0,0
124543,179.837,-687.177,0,0
125845,176.149,-679.399,0,0
127146,172.337,-670.123,0,0
128448,171.699,-658.151,0,0
129749,174.05,-650.307,0,0
131051,173.832,-644.942,0,0
132353,171.402,-639.803,0,0
133654,166.645,-634.116,0,0
134956,160.303,-625.638,0,0
136258,154.527,-614.66,0,0
137559,150.324,-602.177,0,0
138860.775,147.557,-588.886,0,0
140162.4,146.148,-575.211,0,0
141464.025,146.524,-561.609,0,0
142765.65,147.327,-549.415,0,0
144067.275,149.313,-536.17,0,0
145368.9,153.254,-526.063,0,0
146670.525,153.94,-517.303,0,0
147972.15,153.431,-507.108,0,0
149273.775,152.916,-494.788,0,0
150575.4,153.398,-480.15,0,0
151877.025,157.385,-463.58,0,0
153178.65,167.94,-450.55,0,0
154480,174.296,-443.464,0,0
155782,179.809,-432,0,0
157084,190.66,-424.578,0,0
158385,195.669,-422.027,0,0
159687,197.79,-416.771,0,0
160988,200.093,-410.093,0,0
162290,201.628,-403.56,0,0
163592,202.7,-395.066,0,0
164893,202.501,-385.352,0,0
166195,204.952,-373.005,0,0
167497,208.604,-361.717,0,0
168798,212.825,-349.898,0,0
170100,217.959,-338.863,0,0
171401.375,222.098,-327.232,0,0
172703.0,226.915,-314.805,0,0
174004.625,231.328,-301.511,0,0
175306.25,236.298,-285.631,0,0
176607.875,243.606,-267.503,0,0
177909.5,254.14,-247.678,0,0
179211.125,268.915,-226.768,0,0
180512.75,289.424,-208.238,0,0
181814.375,312.301,-193.693,0,0
183116.0,335.659,-183.082,0,0
184417.625,358.871,-174.518,0,0
185719.25,379.527,-169.625,0,0
187021,394.404,-162.615,0,0
188322,407.287,-145.721,0,0
189624,428.474,-118.411,0,0
190926,466.977,-85.5905,0,0
192227,523.739,-61.7999,0,0
193529,588.985,-48.5876,0,0
194831,667.808,-49.3873,0,0
196132,749.904,-72.6244,0,0
197434,828.506,-115.351,0,0
198735,900.485,-173.267,0,0
200037,964.864,-250.554,0,0
201339,1015.85,-345.636,0,0
202640.35,1041.73,-464.07,0,0
203941.975,1025.38,-582.096,0,0
205243.6,982.706,-681.964,0,0
206545.225,921.647,-761.241,0,0
207846.85,854.444,-817.191,0,0
209148.475,789.602,-854.42,0,0
210450.1,732.052,-882.03,0,0
211751.725,675.547,-909.07,0,0
213053.35,609.641,-926.533,0,0
214354.975,545.974,-927.167,0,0
215656.6,490.665,-916.653,0,0
216958.225,444.47,-900.931,0,0
218259.85,405.341,-882.382,0,0
219561,372.332,-862.304,0,0
220863,344.437,-841.38,0,0
222165,320.443,-819.953,0,0
223466,300.64,-797.319,0,0
224768,286.124,-774.096,0,0
226070,277.756,-751.591,0,0
227371,275.491,-733.655,0,0
228673,274.633,-723.636,0,0
229974,269.431,-718.845,0,0
231276,258.691,-712.871,0,0
232578,246.66,-703.017,0,0
233879,236.213,-690.006,0,0
235180.95,228.686,-675.313,0,0
236482.575,223.891,-660.934,0,0
237784.2,221.107,-646.966,0,0
239085.825,220.121,-633.717,0,0
240387.45,220.489,-621.564,0,0
241689.075,222.02,-610.043,0,0
242990.7,224.753,-599.224,0,0
244292.325,228.844,-589.171,0,0
245593.95,234.181,-579.57,0,0
246895.575,242.065,-570.65,0,0
248197.2,253.345,-564.301,0,0
249498.825,265.307,-563.005,0,0
250800,275.33,-563.726,0,0
252102,288.246,-565.169,0,0
253404,303.862,-573.894,0,0
254705,315.778,-591.739,0,0
256007,318.323,-614.685,0,0
257309,311.571,-636.866,0,0
258610,298.222,-654.951,0,0
259912,280.883,-667.96,0,0
261213,261.51,-675.618,0,0
262515,242.642,-678.007,0,0
263817,225.49,-677.201,0,0
265118,209.98,-674.19,0,0
266420,195.839,-669.634,0,0
267721.55,183.476,-663.974,0,0
269023.175,172.491,-657.666,0,0
270324.8,162.581,-651.199,0,0
271626.425,153.478,-644.323,0,0
272928.05,145.273,-637.351,0,0
274229.675,137.651,-629.924,0,0
275531.3,130.896,-622.325,0,0
276832.925,124.909,-614.61,0,0
278134.55,119.606,-606.838,0,0
279436.175,115.083,-598.802,0,0
280737.8,111.9,-590.859,0,0
282039.425,109.629,-584.008,0,0
283341,107.096,-577.757,0,0
284643,104.867,-571.547,0,0
285944,103.295,-565.646,0,0
287246,101.839,-560.71,0,0
288548,99.777,-555.805,0,0
289849,98.1423,-550.967,0,0
291151,96.6513,-546.43,0,0
292452,95.2777,-542.317,0,0
293754,93.6323,-538.775,0,0
295056,91.1369,-535.485,0,0
296357,87.9927,-531.468,0,0
297659,84.7909,-526.19,0,0
298960.525,83.169,-520.164,0,0
300262.15,82.7209,-515.034,0,0
301563.775,82.2641,-510.77,0,0
302865.4,81.4703,-506.951,0,0
304167.025,80.5033,-503.037,0,0
305468.65,79.8149,-498.809,0,0
306770.275,80.0636,-495.279,0,0
308071.9,79.7715,-492.794,0,0
309373.525,78.71,-490.395,0,0
310675.15,77.408,-487.781,0,0
311976.775,75.8867,-485.091,0,0
313278.4,74.1414,-482.138,0,0
314580,72.573,-478.98,0,0
315882,71.1119,-475.758,0,0
317183,69.6966,-472.625,0,0
318485,68.2747,-469.436,0,0
319787,66.7036,-466.222,0,0
321088,65.2115,-462.785,0,0
322390,63.964,-459.187,0,0
323691,62.9379,-455.769,0,0
324993,61.9017,-452.453,0,0
326295,60.8399,-449.159,0,0
327596,59.8165,-445.794,0,0
328898,58.8853,-442.42,0,0
330200,58.0551,-439.061,0,0
331501.125,57.3039,-435.732,0,0
332802.75,56.5313,-432.366,0,0
334104.375,55.9055,-428.984,0,0
335406.0,55.5149,-425.658,0,0
336707.625,55.1067,-422.47,0,0
338009.25,54.725,-419.402,0,0
339310.875,54.3797,-416.316,0,0
340612.5,54.1446,-413.136,0,0
341914.125,53.9782,-410.114,0,0
343215.75,54.1764,-407.266,0,0
344517.375,54.1572,-405.05,0,0
345819.0,53.4473,-402.699,0,0
347121,52.8048,-399.872,0,0
348422,52.4171,-396.914,0,0
349724,52.2016,-394.061,0,0
351025,52.0342,-391.202,0,0
352327,52.0661,-388.511,0,0
353629,52.122,-385.921,0,0
354930,52.0793,-383.491,0,0
356232,51.9032,-381.004,0,0
357534,51.8308,-378.453,0,0
358835,51.9839,-376.029,0,0
360137,52.0822,-373.88,0,0
361438,51.9823,-371.816,0,0
362740.1,51.6538,-369.768,0,0
364041.725,51.2717,-367.471,0,0
365343.35,50.9449,-365.172,0,0
366644.975,50.7358,-362.746,0,0
367946.6,50.565,-360.381,0,0
369248.225,50.4079,-357.96,0,0
370549.85,50.3624,-355.561,0,0
371851.475,50.4692,-353.191,0,0
373153.1,50.7673,-351.072,0,0
374454.725,50.8579,-349.414,0,0
375756.35,50.4288,-347.745,0,0
377057.975,49.8998,-345.707,0,0
378359.6,49.3499,-343.591,0,0
379661,48.7007,-341.368,0,0
380963,48.0485,-338.804,0,0
382264,47.7527,-335.945,0,0
383566,48.0638,-333.318,0,0
384868,48.0691,-331.323,0,0
386169,47.68,-329.112,0,0
387471,47.2957,-326.678,0,0
388773,47.0248,-324.092,0,0
390074,46.8621,-321.46,0,0
391376,46.7576,-318.812,0,0
392677,46.7476,-316.197,0,0
393979,46.7507,-313.541,0,0
395280.7,46.8248,-310.842,0,0
396582.325,46.9569,-308.15,0,0
397883.95,47.1585,-305.415,0,0
399185.575,47.4272,-302.741,0,0
400006.6,47.5749,-301.036,0,0