File: Accelerated corrosion test data/2025-10-03_18-00-02/sample_3.csv
Frequency (Hz),Impedance (ohms),Phase (Radians),Temperature (C),Humidity (%)
10000.0,256.466,-11658.1,0,0
11301.625,228.389,-10326.9,0,0
12603.25,206.581,-9268.8,0,0
13904.875,189.121,-8405.84,0,0
15206.5,176.229,-7685.08,0,0
16508.125,164.648,-7096.19,0,0
17809.75,160.066,-6574.42,0,0
19111.375,148.611,-6127.44,0,0
20413.0,158.933,-5731.12,0,0
21714.625,139.911,-5412.67,0,0
23016.25,129.39,-5110.74,0,0
24317.875,121.002,-4834.61,0,0
25619.5,114.888,-4590.7,0,0
26921.1,110.323,-4363.27,0,0
28222.7,105.435,-4158.69,0,0
29524.4,111.332,-3983.5,0,0
30826,101.869,-3812.44,0,0
32127.6,102.38,-3650.84,0,0
33429.2,100.571,-3527.24,0,0
34730.9,89.3208,-3390.52,0,0
36032.5,84.8795,-3264.36,0,0
37334.1,81.825,-3148.03,0,0
38635.7,79.3779,-3039.33,0,0
39937.4,76.9965,-2938.06,0,0
41239,75.6025,-2842.55,0,0
42540.6,74.4257,-2753.56,0,0
43842.225,73.0186,-2668.92,0,0
45143.85,71.8927,-2590.12,0,0
46445.475,70.9488,-2514.98,0,0
47747.1,71.3845,-2443.15,0,0
49048.725,69.5258,-2378.44,0,0
50350.35,67.826,-2313.85,0,0
51651.975,67.4921,-2252.12,0,0
52953.6,67.8359,-2192.81,0,0
54255.225,70.8989,-2139.05,0,0
55556.85,67.8658,-2092.49,0,0
56858.475,62.6415,-2039.65,0,0
58160.1,62.3905,-1988.2,0,0
59461.7,62.9522,-1939.47,0,0
60763.3,64.3672,-1893.15,0,0
62065,66.5775,-1849.24,0,0
63366.6,70.2923,-1806.08,0,0
64668.2,79.5907,-1765.17,0,0
65969.8,93.6826,-1741.72,0,0
67271.5,77.3227,-1715.63,0,0
68573.1,76.9451,-1679.26,0,0
69874.7,75.7869,-1650.24,0,0
71176.3,70.2823,-1618.92,0,0
72478,68.8284,-1586.83,0,0
73779.6,66.8189,-1558.26,0,0
75081.2,63.2323,-1529.6,0,0
76382.825,60.1979,-1500.3,0,0
77684.45,58.1224,-1471.51,0,0
78986.075,56.2255,-1443.26,0,0
80287.7,54.9084,-1415.59,0,0
81589.325,54.061,-1388.64,0,0
82890.95,53.6251,-1362.46,0,0
84192.575,53.3746,-1337.07,0,0
85494.2,53.4084,-1312.28,0,0
86795.825,53.6944,-1288.3,0,0
88097.45,54.3193,-1264.61,0,0
89399.075,55.8523,-1241,0,0
90700.7,58.3903,-1219.33,0,0
92002.3,61.2409,-1198.95,0,0
93303.9,64.5554,-1181.1,0,0
94605.6,65.5803,-1167.14,0,0
95907.2,59.634,-1149.78,0,0
97208.8,58.5847,-1128.94,0,0
98510.4,58.2573,-1110.05,0,0
99812.1,57.2959,-1091.42,0,0
101114,56.4749,-1071.78,0,0
102415,57.9449,-1051.26,0,0
103717,61.5735,-1033.91,0,0
105019,64.702,-1020.37,0,0
106320.175,63.2305,-1006.68,0,0
107621.8,60.6053,-990.489,0,0
108923.425,59.0631,-972.533,0,0
110225.05,59.4245,-953.825,0,0
111526.675,62.1845,-936.17,0,0
112828.3,64.3999,-920.107,0,0
114129.925,66.3779,-903.986,0,0
115431.55,69.1346,-887.781,0,0
116733.175,73.3745,-871.887,0,0
118034.8,79.0962,-857.04,0,0
119336.425,85.7464,-845.796,0,0
120638.05,90.0563,-840.058,0,0
121939.675,87.8624,-831.191,0,0
123241,88.2471,-818.896,0,0
124543,88.9149,-808.064,0,0
125845,89.1705,-797.854,0,0
127146,87.7138,-787.703,0,0
128448,85.3361,-775.987,0,0
129749,83.962,-761.93,0,0
131051,85.6541,-749.038,0,0
132353,85.156,-737.752,0,0
133654,84.494,-725.845,0,0
134956,82.7743,-713.217,0,0
136258,81.4088,-699.113,0,0
137559,81.5255,-683.804,0,0
138860.775,82.8785,-670.317,0,0
140162.4,82.2943,-656.191,0,0
141464.025,82.5131,-641.505,0,0
142765.65,82.3635,-625.503,0,0
144067.275,83.2861,-608.215,0,0
145368.9,85.155,-590.345,0,0
146670.525,88.2854,-571.193,0,0
147972.15,93.407,-551.385,0,0
149273.775,100.777,-530.976,0,0
150575.4,112.149,-511.04,0,0
151877.025,125.678,-495.22,0,0
153178.65,138.543,-482.613,0,0
154480,148.229,-470.794,0,0
155782,156.984,-454.902,0,0
157084,168.566,-437.351,0,0
158385,184.56,-424.39,0,0
159687,192.566,-409.21,0,0
160988,209.577,-380.866,0,0
162290,239.877,-356.188,0,0
163592,281.255,-341.616,0,0
164893,329.784,-337.675,0,0
166195,379.312,-359.285,0,0
167497,410.187,-395.39,0,0
168798,422.358,-435.54,0,0
170100,414.961,-473.036,0,0
171401.375,395.113,-483.292,0,0
172703.0,391.301,-481.21,0,0
174004.625,399.873,-484.583,0,0
175306.25,402.527,-502.387,0,0
176607.875,393.832,-518.945,0,0
177909.5,376.247,-530.755,0,0
179211.125,356.569,-521.659,0,0
180512.75,351.506,-507.172,0,0
181814.375,357.124,-503.196,0,0
183116.0,348.432,-508.161,0,0
184417.625,337.183,-500.027,0,0
185719.25,329.042,-485.575,0,0
187021,328.155,-463.929,0,0
188322,338.049,-447.297,0,0
189624,345.557,-436.748,0,0
190926,354.985,-425.484,0,0
192227,363.417,-411.828,0,0
193529,376.859,-394.137,0,0
194831,404.55,-376.941,0,0
196132,437.55,-379.483,0,0
197434,460.434,-394.155,0,0
198735,468.057,-408.317,0,0
200037,474.118,-410.693,0,0
201339,478.154,-405.632,0,0
202640.35,494.229,-393.359,0,0
203941.975,526.334,-390.705,0,0
205243.6,556.69,-404.315,0,0
206545.225,570.963,-422.76,0,0
207846.85,586.099,-428.725,0,0
209148.475,613.138,-435.235,0,0
210450.1,644.509,-455.259,0,0
211751.725,670.918,-484.547,0,0
213053.35,692.795,-518.749,0,0
214354.975,709.368,-561.217,0,0
215656.6,717.266,-606.97,0,0
216958.225,715.265,-658.512,0,0
218259.85,697.925,-705.048,0,0
219561,673.304,-741.056,0,0
220863,653.386,-775.97,0,0
222165,620.092,-810.493,0,0
223466,576.411,-833.922,0,0
224768,536.588,-833.788,0,0
226070,517.064,-831.316,0,0
227371,500.228,-842.811,0,0
228673,475.63,-856.234,0,0
229974,444.892,-863.731,0,0
231276,414.069,-865.195,0,0
232578,386.511,-861.83,0,0
233879,361.071,-857.063,0,0
235180.95,336.512,-851.198,0,0
236482.575,311.106,-843.272,0,0
237784.2,287.08,-830.877,0,0
239085.825,265.455,-813.806,0,0
240387.45,250.303,-794.011,0,0
241689.075,239.977,-775.121,0,0
242990.7,234.363,-757.412,0,0
244292.325,231.767,-743.64,0,0
245593.95,228.08,-733.227,0,0
246895.575,224.336,-723.187,0,0
248197.2,220.402,-712.88,0,0
249498.825,218.658,-703.769,0,0
250800,215.949,-697.452,0,0
252102,209.798,-690.611,0,0
253404,202.717,-679.051,0,0
254705,199.956,-664.19,0,0
256007,202.361,-648.557,0,0
257309,210.853,-636.623,0,0
258610,219.675,-630.876,0,0
259912,230.113,-625.818,0,0
261213,242.28,-628.721,0,0
262515,249.298,-640.743,0,0
263817,244.848,-653.513,0,0
265118,233.646,-661.108,0,0
266420,219.68,-661.53,0,0
267721.55,207.596,-655.003,0,0
269023.175,200.513,-645.433,0,0
270324.8,197.814,-635.849,0,0
271626.425,197.983,-627.558,0,0
272928.05,200.059,-621.898,0,0
274229.675,201.258,-617.009,0,0
275531.3,205.128,-612.527,0,0
276832.925,211.549,-611.276,0,0
278134.55,216.931,-616.556,0,0
279436.175,216.257,-625.835,0,0
280737.8,208.295,-632.537,0,0
282039.425,198.973,-634.555,0,0
283341,188.755,-633.386,0,0
284643,180.014,-628.819,0,0
285944,172.55,-622.313,0,0
287246,167.891,-613.568,0,0
288548,167.78,-605.048,0,0
289849,169.734,-600.101,0,0
291151,171.031,-597.48,0,0
292452,170.737,-595.333,0,0
293754,171.379,-592.038,0,0
295056,174.545,-590.497,0,0
296357,177.467,-593.623,0,0
297659,176.336,-599.219,0,0
298960.525,170.6,-603.855,0,0
300262.15,163.236,-605.551,0,0
301563.775,155.306,-605.034,0,0
302865.4,147.937,-602.275,0,0
304167.025,141.611,-598.448,0,0
305468.65,136.425,-593.834,0,0
306770.275,132.149,-588.891,0,0
308071.9,129.431,-584.131,0,0
309373.525,126.955,-581.026,0,0
310675.15,123.228,-578.02,0,0
311976.775,118.972,-574.268,0,0
313278.4,114.49,-568.954,0,0
314580,111.706,-562.089,0,0
315882,111.626,-555.331,0,0
317183,113.241,-550.97,0,0
318485,113.845,-548.837,0,0
319787,113.077,-546.839,0,0
321088,112.193,-544.277,0,0
322390,112.119,-541.933,0,0
323691,111.96,-541.218,0,0
324993,110.308,-541.439,0,0
326295,107.134,-541.171,0,0
327596,103.021,-539.89,0,0
328898,98.9744,-537.45,0,0
330200,95.1683,-534.797,0,0
331501.125,90.9348,-531.747,0,0
332802.75,86.6488,-527.836,0,0
334104.375,82.5582,-522.967,0,0
335406.0,79.0593,-517.064,0,0
336707.625,76.893,-510.698,0,0
338009.25,75.6761,-504.454,0,0
339310.875,75.2462,-498.125,0,0
340612.5,76.2636,-491.884,0,0
341914.125,78.5802,-487.116,0,0
343215.75,80.9678,-484.34,0,0
344517.375,82.0538,-482.76,0,0
345819.0,81.8841,-481.084,0,0
347121,81.2088,-478.893,0,0
348422,80.2987,-476.121,0,0
349724,80.0924,-472.605,0,0
351025,81.1024,-469.545,0,0
352327,82.176,-468.288,0,0
353629,81.6176,-467.884,0,0
354930,79.5187,-466.532,0,0
356232,77.5347,-463.729,0,0
357534,76.1473,-460.555,0,0
358835,75.0176,-456.959,0,0
360137,74.7881,-453.199,0,0
361438,75.1338,-449.802,0,0
362740.1,75.6238,-446.763,0,0
364041.725,76.6881,-444.075,0,0
365343.35,78.1718,-442.806,0,0
366644.975,77.9626,-443.009,0,0
367946.6,75.4356,-442.216,0,0
369248.225,72.6289,-438.648,0,0
370549.85,72.8064,-433.778,0,0
371851.475,74.6576,-431.357,0,0
373153.1,74.8342,-430.86,0,0
374454.725,73.2258,-429.548,0,0
375756.35,71.3962,-426.709,0,0
377057.975,70.7999,-422.925,0,0
378359.6,71.229,-419.536,0,0
379661,72.1063,-416.841,0,0
380963,72.9198,-414.819,0,0
382264,73.5442,-413.395,0,0
383566,73.4245,-412.408,0,0
384868,72.5087,-411.206,0,0
386169,71.0875,-409.177,0,0
387471,69.9116,-406.435,0,0
388773,68.8746,-403.265,0,0
390074,68.3895,-399.26,0,0
391376,69.1546,-395.087,0,0
392677,71.0948,-391.377,0,0
393979,73.7225,-388.959,0,0
395280.7,76.3047,-387.794,0,0
396582.325,78.2713,-387.849,0,0
397883.95,79.1043,-388.585,0,0
399185.575,78.4458,-389.064,0,0
400006.6,77.6551,-388.947,0,0