File: Accelerated corrosion test data/2025-10-03_18-00-02/sample_4.csv
Frequency (Hz),Impedance (ohms),Phase (Radians),Temperature (C),Humidity (%)
10000.0,267.426,-11746.7,0,0
11301.625,237.577,-10407,0,0
12603.25,215.745,-9337.05,0,0
13904.875,196.336,-8465.47,0,0
15206.5,183.624,-7749.39,0,0
16508.125,191,-7140.89,0,0
17809.75,158,-6638.87,0,0
19111.375,147.548,-6187.39,0,0
20413.0,142.694,-5791.93,0,0
21714.625,145.356,-5448.56,0,0
23016.25,127.141,-5152.56,0,0
24317.875,117.871,-4872.01,0,0
25619.5,114.1,-4621.43,0,0
26921.1,108.294,-4394.36,0,0
28222.7,121.32,-4191.67,0,0
29524.4,113.438,-4016.31,0,0
30826,100.459,-3845.37,0,0
32127.6,100.563,-3687.56,0,0
33429.2,91.701,-3546.87,0,0
34730.9,86.6165,-3410.63,0,0
36032.5,83.4671,-3284.41,0,0
37334.1,81.1303,-3166.93,0,0
38635.7,78.7352,-3056.25,0,0
39937.4,78.1798,-2951.96,0,0
41239,81.092,-2857.38,0,0
42540.6,79.7244,-2771.91,0,0
43842.225,75.163,-2688.41,0,0
45143.85,72.2397,-2608.04,0,0
46445.475,71.8904,-2531.71,0,0
47747.1,71.2515,-2462.87,0,0
49048.725,67.2865,-2394.01,0,0
50350.35,65.9421,-2327.46,0,0
51651.975,65.5685,-2263.51,0,0
52953.6,67.6345,-2201.4,0,0
54255.225,75.0531,-2145.6,0,0
55556.85,72.9092,-2102.32,0,0
56858.475,67.0937,-2049.53,0,0
58160.1,68.2544,-1997.5,0,0
59461.7,72.9469,-1947.52,0,0
60763.3,82.7454,-1911.19,0,0
62065,71.374,-1877.86,0,0
63366.6,66.1882,-1832.32,0,0
64668.2,66.2089,-1789.65,0,0
65969.8,68.511,-1749.69,0,0
67271.5,72.0405,-1714.55,0,0
68573.1,74.507,-1686.74,0,0
69874.7,66.6782,-1655.51,0,0
71176.3,66.0885,-1621.73,0,0
72478,60.2016,-1590.41,0,0
73779.6,59.0403,-1554.35,0,0
75081.2,61.2271,-1522.31,0,0
76382.825,63.2063,-1494.21,0,0
77684.45,66.0275,-1466.64,0,0
78986.075,64.0616,-1444.17,0,0
80287.7,61.1633,-1417.15,0,0
81589.325,60.4783,-1391.26,0,0
82890.95,59.3131,-1366.13,0,0
84192.575,58.3626,-1341.33,0,0
85494.2,57.7714,-1317.2,0,0
86795.825,57.3729,-1293.78,0,0
88097.45,56.0357,-1271.76,0,0
89399.075,54.3002,-1247.72,0,0
90700.7,54.1715,-1224.76,0,0
92002.3,54.5585,-1201.82,0,0
93303.9,55.419,-1181.05,0,0
94605.6,54.2606,-1160.19,0,0
95907.2,54.2684,-1137.83,0,0
97208.8,55.3365,-1116.37,0,0
98510.4,56.8803,-1095.1,0,0
99812.1,59.9118,-1074.74,0,0
101114,64.7611,-1056.83,0,0
102415,63.2297,-1042.81,0,0
103717,60.4131,-1020.13,0,0
105019,64.9354,-996.692,0,0
106320.175,71.7905,-977.143,0,0
107621.8,78.7882,-959.88,0,0
108923.425,87.3302,-944.329,0,0
110225.05,94.9802,-932.571,0,0
111526.675,100.657,-922.716,0,0
112828.3,105.135,-913.759,0,0
114129.925,107.448,-905.702,0,0
115431.55,108.007,-897.953,0,0
116733.175,106.02,-889.421,0,0
118034.8,102.505,-877.768,0,0
119336.425,103.255,-862.265,0,0
120638.05,108.422,-856.946,0,0
121939.675,101.143,-849.41,0,0
123241,96.4017,-836.665,0,0
124543,93.1588,-823.789,0,0
125845,90.5725,-810.458,0,0
127146,87.4009,-798.03,0,0
128448,83.5862,-784.631,0,0
129749,78.6755,-769.403,0,0
131051,75.3108,-751.826,0,0
132353,73.7616,-733.554,0,0
133654,73.6704,-715.077,0,0
134956,74.8718,-696.573,0,0
136258,77.4093,-678.669,0,0
137559,80.5536,-661.74,0,0
138860.775,82.5907,-644.297,0,0
140162.4,85.9791,-625.577,0,0
141464.025,91.1787,-606.736,0,0
142765.65,97.1737,-588.318,0,0
144067.275,104.293,-569.61,0,0
145368.9,113.091,-550.938,0,0
146670.525,123.309,-532.61,0,0
147972.15,134.902,-515.03,0,0
149273.775,148.399,-496.986,0,0
150575.4,164.846,-480.07,0,0
151877.025,184.828,-465.843,0,0
153178.65,207.035,-456.256,0,0
154480,226.584,-453.039,0,0
155782,242.076,-449.545,0,0
157084,256.046,-445.904,0,0
158385,272.794,-438.877,0,0
159687,295.301,-438.317,0,0
160988,312.703,-447.485,0,0
162290,317.17,-454.537,0,0
163592,323.332,-451.926,0,0
164893,336.307,-446.183,0,0
166195,353.98,-444.765,0,0
167497,379.296,-449.446,0,0
168798,401.979,-472.835,0,0
170100,408.781,-503.908,0,0
171401.375,395.667,-537.114,0,0
172703.0,367.098,-553.799,0,0
174004.625,335.788,-550.862,0,0
175306.25,312.756,-534.718,0,0
176607.875,300.132,-511.995,0,0
177909.5,297.086,-489.467,0,0
179211.125,298.185,-469.943,0,0
180512.75,301.734,-451.613,0,0
181814.375,306.282,-433.663,0,0
183116.0,311.609,-414.329,0,0
184417.625,320.312,-392.098,0,0
185719.25,333.695,-368.607,0,0
187021,352.953,-345.06,0,0
188322,378.09,-322.41,0,0
189624,409.936,-302.476,0,0
190926,449.164,-287.334,0,0
192227,493.391,-280.834,0,0
193529,539.4,-283.474,0,0
194831,584.563,-293.722,0,0
196132,628.969,-310.393,0,0
197434,674.972,-333.779,0,0
198735,720.813,-370.52,0,0
200037,757.934,-422.276,0,0
201339,778.234,-482.392,0,0
202640.35,780.87,-540.223,0,0
203941.975,774.805,-588.061,0,0
205243.6,766.318,-633.113,0,0
206545.225,753.424,-676.865,0,0
207846.85,735.045,-723.674,0,0
209148.475,698.67,-764.454,0,0
210450.1,657.735,-785.769,0,0
211751.725,621.764,-795.333,0,0
213053.35,594.64,-795.277,0,0
214354.975,579.368,-793.533,0,0
215656.6,573.562,-800.903,0,0
216958.225,563.18,-817.809,0,0
218259.85,545.971,-835.677,0,0
219561,525.758,-850.753,0,0
220863,501.915,-867.026,0,0
222165,471.932,-879.265,0,0
223466,441.208,-884.523,0,0
224768,410.555,-885.969,0,0
226070,379.239,-883.805,0,0
227371,348.887,-874.883,0,0
228673,321.439,-861.838,0,0
229974,298.69,-843.832,0,0
231276,282.67,-824.324,0,0
232578,271.189,-806.359,0,0
233879,263.39,-789.412,0,0
235180.95,258.501,-774.988,0,0
236482.575,254.751,-763.472,0,0
237784.2,251.44,-752.884,0,0
239085.825,249.655,-744.573,0,0
240387.45,246.818,-738.878,0,0
241689.075,241.862,-734.295,0,0
242990.7,235.517,-728.867,0,0
244292.325,228.864,-722.417,0,0
245593.95,221.972,-714.728,0,0
246895.575,216.492,-705.634,0,0
248197.2,213.126,-697.554,0,0
249498.825,208.37,-691.092,0,0
250800,202.619,-683.545,0,0
252102,195.433,-675.706,0,0
253404,186.807,-662.873,0,0
254705,182.572,-646.223,0,0
256007,181.984,-628.019,0,0
257309,187.307,-609.063,0,0
258610,197.697,-592.118,0,0
259912,213.933,-578.432,0,0
261213,234.26,-571.601,0,0
262515,254.716,-572.607,0,0
263817,274.172,-581.021,0,0
265118,288.421,-595.359,0,0
266420,296.771,-615.457,0,0
267721.55,293.879,-636.689,0,0
269023.175,285.121,-653.168,0,0
270324.8,269.595,-663.679,0,0
271626.425,259.063,-665.539,0,0
272928.05,251.727,-671.089,0,0
274229.675,240.933,-677.948,0,0
275531.3,224.265,-683.454,0,0
276832.925,204.398,-680.909,0,0
278134.55,187.681,-670.179,0,0
279436.175,178.517,-655.314,0,0
280737.8,176.791,-643.739,0,0
282039.425,174.958,-636.175,0,0
283341,174.287,-627.696,0,0
284643,175.199,-623.145,0,0
285944,174.531,-619.91,0,0
287246,170.402,-616.475,0,0
288548,166.693,-606.747,0,0
289849,171.474,-594.927,0,0
291151,183.075,-590.255,0,0
292452,193.97,-594.475,0,0
293754,200.337,-605.795,0,0
295056,196.644,-619.948,0,0
296357,184.972,-628.677,0,0
297659,172.189,-630.269,0,0
298960.525,161.996,-628.064,0,0
300262.15,153.571,-625.221,0,0
301563.775,145.124,-621.486,0,0
302865.4,137.88,-615.911,0,0
304167.025,132.138,-609.722,0,0
305468.65,128.133,-603.168,0,0
306770.275,125.945,-597.406,0,0
308071.9,124.278,-593.249,0,0
309373.525,122.069,-590.161,0,0
310675.15,119.097,-587.274,0,0
311976.775,115.317,-583.888,0,0
313278.4,111.967,-579.435,0,0
314580,109.64,-574.935,0,0
315882,108.02,-571.04,0,0
317183,106.415,-568.07,0,0
318485,104.452,-565.942,0,0
319787,101.414,-564.242,0,0
321088,97.3203,-562.474,0,0
322390,91.2285,-559.653,0,0
323691,84.9501,-553.778,0,0
324993,81.1272,-546.33,0,0
326295,78.8895,-539.374,0,0
327596,77.113,-532.67,0,0
328898,75.934,-525.767,0,0
330200,76.51,-518.819,0,0
331501.125,78.2678,-513.556,0,0
332802.75,79.5315,-510.027,0,0
334104.375,79.5397,-507.393,0,0
335406.0,78.3478,-504.25,0,0
336707.625,76.6088,-500.095,0,0
338009.25,75.3901,-494.527,0,0
339310.875,75.6464,-488.132,0,0
340612.5,77.6357,-482.074,0,0
341914.125,81.5262,-477.248,0,0
343215.75,86.2065,-475.317,0,0
344517.375,89.0551,-475.982,0,0
345819.0,89.2818,-476.996,0,0
347121,88.111,-477.045,0,0
348422,86.1721,-476.197,0,0
349724,83.8035,-474.361,0,0
351025,81.6685,-471.495,0,0
352327,79.9464,-467.771,0,0
353629,79.4455,-463.535,0,0
354930,80.2459,-460.21,0,0
356232,80.5367,-458.064,0,0
357534,80.0457,-456.283,0,0
358835,78.2517,-453.715,0,0
360137,77.0882,-449.378,0,0
361438,77.3419,-444.959,0,0
362740.1,78.7092,-441.149,0,0
364041.725,80.0567,-438.73,0,0
365343.35,80.0767,-436.337,0,0
366644.975,80.2479,-432.519,0,0
367946.6,81.7728,-428.154,0,0
369248.225,85.0514,-424.256,0,0
370549.85,89.4567,-422.019,0,0
371851.475,94.499,-422.04,0,0
373153.1,98.0137,-425.016,0,0
374454.725,98.007,-428.574,0,0
375756.35,96.2281,-430.149,0,0
377057.975,94.7803,-430.566,0,0
378359.6,93.236,-430.75,0,0
379661,91.7142,-430.589,0,0
380963,89.9738,-430.193,0,0
382264,88.4155,-429.02,0,0
383566,88.3964,-428.89,0,0
384868,86.0874,-430.658,0,0
386169,81.4801,-430.678,0,0
387471,76.654,-428.179,0,0
388773,73.5829,-423.496,0,0
390074,73.2966,-419.153,0,0
391376,74.1882,-417.295,0,0
392677,73.1364,-417.604,0,0
393979,69.5624,-416.876,0,0
395280.7,65.743,-414.028,0,0
396582.325,62.776,-409.985,0,0
397883.95,60.6754,-405.542,0,0
399185.575,59.21,-400.986,0,0
400006.6,58.5412,-397.933,0,0