File: Accelerated corrosion test data/2025-10-03_18-00-02/sample_7.csv
Frequency (Hz),Impedance (ohms),Phase (Radians),Temperature (C),Humidity (%)
10000.0,279.146,-11968.5,0,0
11301.625,251.338,-10589.3,0,0
12603.25,264.126,-9551.11,0,0
13904.875,213.391,-8662.59,0,0
15206.5,200.689,-7932.12,0,0
16508.125,175.304,-7299.19,0,0
17809.75,174.168,-6750.4,0,0
19111.375,182.884,-6314.69,0,0
20413.0,173.69,-5923.7,0,0
21714.625,157.334,-5583.18,0,0
23016.25,133.571,-5264.47,0,0
24317.875,125.965,-4974.89,0,0
25619.5,122.163,-4714.09,0,0
26921.1,125.824,-4471.43,0,0
28222.7,182.013,-4272.68,0,0
29524.4,136.741,-4126.17,0,0
30826,137.236,-3946.87,0,0
32127.6,119.967,-3802.4,0,0
33429.2,103.991,-3652.91,0,0
34730.9,95.6623,-3510.23,0,0
36032.5,91.4657,-3378.11,0,0
37334.1,89.0224,-3256.05,0,0
38635.7,88.8066,-3140.51,0,0
39937.4,98.3351,-3040.96,0,0
41239,89.0157,-2953.25,0,0
42540.6,82.7325,-2858.57,0,0
43842.225,82.247,-2770.74,0,0
45143.85,82.6556,-2694.09,0,0
46445.475,79.7188,-2622.02,0,0
47747.1,73.7068,-2546.75,0,0
49048.725,70.9519,-2477.34,0,0
50350.35,68.819,-2411.05,0,0
51651.975,67.1903,-2348.04,0,0
52953.6,66.2803,-2288.06,0,0
54255.225,65.0232,-2231.66,0,0
55556.85,63.9919,-2177.44,0,0
56858.475,63.2189,-2125.66,0,0
58160.1,62.7183,-2075.73,0,0
59461.7,62.5924,-2028.99,0,0
60763.3,62.1422,-1985.38,0,0
62065,60.2743,-1942.38,0,0
63366.6,59.2212,-1900.42,0,0
64668.2,58.2202,-1860.11,0,0
65969.8,58.3476,-1822.25,0,0
67271.5,56.6026,-1785.86,0,0
68573.1,55.3098,-1749.39,0,0
69874.7,54.9576,-1714.53,0,0
71176.3,54.3435,-1681.31,0,0
72478,53.385,-1649.15,0,0
73779.6,52.5287,-1617.61,0,0
75081.2,52.1031,-1587.1,0,0
76382.825,51.7077,-1557.58,0,0
77684.45,51.3116,-1528.99,0,0
78986.075,51.0998,-1501.27,0,0
80287.7,50.99,-1474.5,0,0
81589.325,50.7485,-1448.48,0,0
82890.95,50.6467,-1423.16,0,0
84192.575,50.636,-1398.24,0,0
85494.2,50.856,-1374.57,0,0
86795.825,50.7974,-1351.36,0,0
88097.45,51.1168,-1328.7,0,0
89399.075,51.0951,-1306.8,0,0
90700.7,51.3972,-1285.02,0,0
92002.3,51.6223,-1263.94,0,0
93303.9,51.82,-1242.89,0,0
94605.6,54.5342,-1223.59,0,0
95907.2,53.3451,-1205.69,0,0
97208.8,53.0279,-1186.06,0,0
98510.4,54.2021,-1166.98,0,0
99812.1,54.0083,-1148.47,0,0
101114,55.2515,-1129.86,0,0
102415,56.6679,-1112.2,0,0
103717,59.4401,-1095.77,0,0
105019,60.4912,-1080.64,0,0
106320.175,60.048,-1064.76,0,0
107621.8,61.5505,-1048.47,0,0
108923.425,62.3487,-1033.27,0,0
110225.05,62.7628,-1016.82,0,0
111526.675,66.2406,-1000.41,0,0
112828.3,70.6667,-984.958,0,0
114129.925,75.1471,-972.833,0,0
115431.55,79.4574,-960.838,0,0
116733.175,85.6614,-952.157,0,0
118034.8,86.3222,-946.377,0,0
119336.425,88.0853,-940.215,0,0
120638.05,82.5855,-937.448,0,0
121939.675,73.669,-926.697,0,0
123241,67.8641,-913.093,0,0
124543,64.3051,-898.531,0,0
125845,60.9577,-885.123,0,0
127146,58.2658,-870.607,0,0
128448,56.6133,-855.788,0,0
129749,55.7146,-841.188,0,0
131051,55.0477,-826.896,0,0
132353,54.6656,-811.842,0,0
133654,55.507,-796.474,0,0
134956,58.597,-781.51,0,0
136258,63.4777,-769.821,0,0
137559,64.344,-760.985,0,0
138860.775,62.8616,-749.783,0,0
140162.4,62.826,-736.424,0,0
141464.025,63.1926,-723.526,0,0
142765.65,63.961,-709.605,0,0
144067.275,66.1316,-695.976,0,0
145368.9,68.12,-683.413,0,0
146670.525,69.4199,-669.816,0,0
147972.15,71.6821,-656.253,0,0
149273.775,73.4002,-643.125,0,0
150575.4,74.9615,-627.733,0,0
151877.025,77.9489,-610.889,0,0
153178.65,83.4612,-593.4,0,0
154480,90.7341,-576.252,0,0
155782,100.624,-559.995,0,0
157084,111.789,-545.949,0,0
158385,122.61,-534.691,0,0
159687,129.424,-524.397,0,0
160988,134.149,-506.132,0,0
162290,147.002,-481.974,0,0
163592,167.759,-458.813,0,0
164893,197.244,-440.597,0,0
166195,230.034,-423.29,0,0
167497,279.823,-416.239,0,0
168798,332.879,-431.446,0,0
170100,375.549,-465.134,0,0
171401.375,403.946,-520.781,0,0
172703.0,403.701,-578.168,0,0
174004.625,373.009,-620.748,0,0
175306.25,336.319,-635.441,0,0
176607.875,319.54,-625.692,0,0
177909.5,322.73,-634.023,0,0
179211.125,310.25,-666.407,0,0
180512.75,275.075,-677.193,0,0
181814.375,240.201,-681.107,0,0
183116.0,205.567,-665.412,0,0
184417.625,182.69,-641.925,0,0
185719.25,170.575,-620.438,0,0
187021,159.233,-595.502,0,0
188322,158.932,-572.225,0,0
189624,153.729,-556.463,0,0
190926,148.91,-533.754,0,0
192227,151.106,-508.911,0,0
193529,156.493,-484.999,0,0
194831,166.361,-462.213,0,0
196132,179.897,-442.295,0,0
197434,194.701,-425.897,0,0
198735,209.72,-409.666,0,0
200037,226.266,-393.869,0,0
201339,247.098,-378.604,0,0
202640.35,273.724,-364.518,0,0
203941.975,304.606,-357.632,0,0
205243.6,335.664,-357.734,0,0
206545.225,366.45,-366.622,0,0
207846.85,385.479,-376.53,0,0
209148.475,416.326,-373.508,0,0
210450.1,462.541,-398.056,0,0
211751.725,485.571,-447.416,0,0
213053.35,485.721,-488.161,0,0
214354.975,476.625,-523.012,0,0
215656.6,459.644,-543.693,0,0
216958.225,448.896,-563.24,0,0
218259.85,428.334,-578.421,0,0
219561,405.541,-583.929,0,0
220863,388.31,-574.672,0,0
222165,384.621,-562.03,0,0
223466,390.081,-554.685,0,0
224768,398.832,-551.436,0,0
226070,414.038,-551.436,0,0
227371,430.889,-564.299,0,0
228673,446.206,-584.774,0,0
229974,451.31,-617.178,0,0
231276,442.726,-653.166,0,0
232578,422.973,-682.242,0,0
233879,392.461,-710.212,0,0
235180.95,345.435,-719.057,0,0
236482.575,311.268,-704.239,0,0
237784.2,289.544,-692.026,0,0
239085.825,270.231,-670.555,0,0
240387.45,269.111,-652.465,0,0
241689.075,265.047,-647.74,0,0
242990.7,252.71,-638.803,0,0
244292.325,247.809,-621.177,0,0
245593.95,255.125,-608.261,0,0
246895.575,259.724,-604.851,0,0
248197.2,261.745,-601.675,0,0
249498.825,264.491,-599.666,0,0
250800,266.826,-600.522,0,0
252102,268.449,-602.772,0,0
253404,266.834,-607.601,0,0
254705,260.818,-613.026,0,0
256007,250.111,-614.162,0,0
257309,240.145,-609.635,0,0
258610,232.37,-600.91,0,0
259912,229.109,-590.912,0,0
261213,229.111,-579.115,0,0
262515,237.55,-567.249,0,0
263817,252.444,-565.573,0,0
265118,261.853,-574.088,0,0
266420,264.558,-582.642,0,0
267721.55,265.098,-591.743,0,0
269023.175,261.186,-599.211,0,0
270324.8,260.358,-603.511,0,0
271626.425,261.844,-613.004,0,0
272928.05,260.015,-634.09,0,0
274229.675,237.763,-656.316,0,0
275531.3,204.522,-662.18,0,0
276832.925,173.31,-652.02,0,0
278134.55,151.614,-631.26,0,0
279436.175,142.456,-609,0,0
280737.8,140.758,-590.693,0,0
282039.425,140.978,-579.175,0,0
283341,137.985,-568.327,0,0
284643,137.008,-554.164,0,0
285944,140.571,-542.061,0,0
287246,144.72,-533.149,0,0
288548,147.619,-524.75,0,0
289849,152.468,-515.89,0,0
291151,158.539,-508.72,0,0
292452,164.469,-503.038,0,0
293754,170.355,-497.304,0,0
295056,177.65,-490.343,0,0
296357,189.585,-483.83,0,0
297659,205.324,-481.672,0,0
298960.525,222.598,-485.61,0,0
300262.15,239.623,-495.648,0,0
301563.775,254.92,-514.16,0,0
302865.4,261.121,-542.842,0,0
304167.025,250.329,-569.911,0,0
305468.65,232.175,-588.44,0,0
306770.275,210.144,-598.212,0,0
308071.9,189.73,-599.748,0,0
309373.525,172.089,-596.359,0,0
310675.15,158.632,-590.097,0,0
311976.775,148.496,-583.363,0,0
313278.4,139.973,-577.199,0,0
314580,132.068,-570.339,0,0
315882,126.274,-562.446,0,0
317183,122.598,-555.286,0,0
318485,119.629,-549.348,0,0
319787,117.721,-543.551,0,0
321088,116.418,-539.588,0,0
322390,114.129,-536.71,0,0
323691,110.926,-533.669,0,0
324993,107.639,-529.843,0,0
326295,105.096,-525.651,0,0
327596,102.76,-522.242,0,0
328898,100.078,-519.136,0,0
330200,97.0485,-515.731,0,0
331501.125,94.4192,-512.384,0,0
332802.75,90.8076,-509.475,0,0
334104.375,86.4953,-505.325,0,0
335406.0,82.8191,-500.209,0,0
336707.625,79.6839,-494.638,0,0
338009.25,77.1605,-488.543,0,0
339310.875,75.3709,-482.435,0,0
340612.5,74.0962,-476.462,0,0
341914.125,73.4579,-470.384,0,0
343215.75,73.4511,-464.511,0,0
344517.375,74.3104,-459.09,0,0
345819.0,75.4102,-454.739,0,0
347121,76.2924,-451.137,0,0
348422,76.2802,-447.951,0,0
349724,75.7267,-444.056,0,0
351025,75.2594,-439.61,0,0
352327,75.8006,-434.543,0,0
353629,77.4194,-430.062,0,0
354930,79.3649,-426.768,0,0
356232,80.9194,-424.687,0,0
357534,80.7297,-423.132,0,0
358835,79.2154,-420.218,0,0
360137,78.361,-415.245,0,0
361438,79.177,-410.097,0,0
362740.1,80.9393,-405.531,0,0
364041.725,83.0318,-401.514,0,0
365343.35,85.7161,-398.019,0,0
366644.975,88.4745,-395.609,0,0
367946.6,90.7967,-393.548,0,0
369248.225,93.2978,-392.41,0,0
370549.85,94.1423,-392.612,0,0
371851.475,92.5803,-391.187,0,0
373153.1,91.9286,-387.24,0,0
374454.725,92.9339,-383.172,0,0
375756.35,94.5202,-379.506,0,0
377057.975,96.4641,-376.162,0,0
378359.6,98.4666,-372.591,0,0
379661,101.603,-369.104,0,0
380963,105.202,-366.617,0,0
382264,108.845,-364.581,0,0
383566,112.719,-363.489,0,0
384868,115.997,-363.045,0,0
386169,118.517,-362.818,0,0
387471,120.862,-362.237,0,0
388773,122.957,-361.099,0,0
390074,126.192,-359.704,0,0
391376,129.96,-359.134,0,0
392677,133.804,-358.956,0,0
393979,137.976,-359.372,0,0
395280.7,142.606,-360.352,0,0
396582.325,147.577,-362.673,0,0
397883.95,152.464,-366.985,0,0
399185.575,155.827,-373.342,0,0
400006.6,156.51,-378.101,0,0