File: Accelerated corrosion test data/2025-10-03_18-00-02/sample_2.csv
Frequency (Hz),Impedance (ohms),Phase (Radians),Temperature (C),Humidity (%)
10000.0,224.546,-11300.8,0,0
11301.625,200.573,-10008.4,0,0
12603.25,180.515,-8985.26,0,0
13904.875,179.68,-8157.96,0,0
15206.5,158.105,-7465.84,0,0
16508.125,141.222,-6878.44,0,0
17809.75,131.184,-6376.59,0,0
19111.375,127.029,-5942.48,0,0
20413.0,116.971,-5563.51,0,0
21714.625,124.615,-5236.86,0,0
23016.25,110.099,-4944.55,0,0
24317.875,101.848,-4681.49,0,0
25619.5,96.0499,-4441.17,0,0
26921.1,94.3627,-4225.17,0,0
28222.7,88.8211,-4028.53,0,0
29524.4,93.2195,-3846.8,0,0
30826,86.7276,-3693.64,0,0
32127.6,81.4833,-3541.57,0,0
33429.2,79.053,-3404.4,0,0
34730.9,75.0547,-3275.5,0,0
36032.5,72.5438,-3155.54,0,0
37334.1,70.4422,-3043.53,0,0
38635.7,68.2925,-2939.48,0,0
39937.4,66.6673,-2841.79,0,0
41239,65.2348,-2750.13,0,0
42540.6,63.7571,-2664.4,0,0
43842.225,62.7606,-2583.29,0,0
45143.85,61.6996,-2506.82,0,0
46445.475,60.6605,-2434.81,0,0
47747.1,60.2939,-2366.18,0,0
49048.725,60.2632,-2303.19,0,0
50350.35,57.7015,-2241.47,0,0
51651.975,56.5384,-2183.47,0,0
52953.6,54.912,-2126.67,0,0
54255.225,54.1464,-2072.58,0,0
55556.85,53.7579,-2021.21,0,0
56858.475,53.7411,-1971.87,0,0
58160.1,53.8493,-1925.15,0,0
59461.7,54.5337,-1879.71,0,0
60763.3,55.951,-1837.36,0,0
62065,58.4473,-1800.15,0,0
63366.6,55.6836,-1763.58,0,0
64668.2,52.6341,-1726.03,0,0
65969.8,50.7396,-1686.97,0,0
67271.5,51.4272,-1650.02,0,0
68573.1,53.6479,-1616.69,0,0
69874.7,55.7762,-1587.06,0,0
71176.3,52.6917,-1558.72,0,0
72478,47.6306,-1528.24,0,0
73779.6,45.0486,-1495.76,0,0
75081.2,45.3136,-1463.96,0,0
76382.825,46.9912,-1434.17,0,0
77684.45,49.8013,-1406.19,0,0
78986.075,52.944,-1382.3,0,0
80287.7,51.6826,-1360.85,0,0
81589.325,49.2096,-1336.13,0,0
82890.95,48.0429,-1310.59,0,0
84192.575,48.9315,-1286.14,0,0
85494.2,49.744,-1262.91,0,0
86795.825,50.5443,-1240.91,0,0
88097.45,51.1796,-1220.05,0,0
89399.075,51.254,-1198.72,0,0
90700.7,51.53,-1178.41,0,0
92002.3,53.2075,-1157.75,0,0
93303.9,55.9975,-1139.69,0,0
94605.6,55.6419,-1123.12,0,0
95907.2,55.6521,-1103.72,0,0
97208.8,57.857,-1087.77,0,0
98510.4,57.6796,-1073.99,0,0
99812.1,52.6404,-1059.2,0,0
101114,49.5548,-1041.44,0,0
102415,47.0289,-1021.4,0,0
103717,46.1235,-1000.3,0,0
105019,49.6152,-980.592,0,0
106320.175,54.6655,-964.185,0,0
107621.8,57.3311,-952.247,0,0
108923.425,55.5537,-940.231,0,0
110225.05,52.5725,-924.258,0,0
111526.675,51.6832,-906.827,0,0
112828.3,52.3748,-889.647,0,0
114129.925,54.3833,-872.779,0,0
115431.55,57.1681,-856.887,0,0
116733.175,60.6892,-841.97,0,0
118034.8,64.1734,-828.724,0,0
119336.425,67.3355,-816.452,0,0
120638.05,69.114,-806.475,0,0
121939.675,68.2695,-794.72,0,0
123241,67.7265,-781.513,0,0
124543,67.3189,-767.824,0,0
125845,67.5897,-753.068,0,0
127146,69.2646,-738.148,0,0
128448,72.1044,-724.148,0,0
129749,74.6659,-711.094,0,0
131051,76.8203,-698.466,0,0
132353,78.3225,-685.913,0,0
133654,79.4253,-672.201,0,0
134956,81.2535,-657.791,0,0
136258,83.5875,-643.168,0,0
137559,86.5182,-628.312,0,0
138860.775,89.3461,-613.075,0,0
140162.4,92.6935,-596.034,0,0
141464.025,98.8857,-577.319,0,0
142765.65,108.81,-559.454,0,0
144067.275,120.016,-544.111,0,0
145368.9,132.367,-529.262,0,0
146670.525,146.15,-515.441,0,0
147972.15,163.271,-502.465,0,0
149273.775,185.543,-491.44,0,0
150575.4,211.99,-492.438,0,0
151877.025,231.181,-505.595,0,0
153178.65,235.31,-521.655,0,0
154480,230.264,-529.559,0,0
155782,224.75,-529.335,0,0
157084,221.003,-525.667,0,0
158385,219.165,-519.77,0,0
159687,218.69,-511.712,0,0
160988,222.346,-503.917,0,0
162290,231.37,-503.551,0,0
163592,224.951,-512.593,0,0
164893,210.729,-507.939,0,0
166195,196.414,-493.16,0,0
167497,190.445,-473.092,0,0
168798,188.002,-450.178,0,0
170100,190.975,-428.083,0,0
171401.375,195.283,-404.19,0,0
172703.0,205.056,-379.265,0,0
174004.625,219.783,-354.474,0,0
175306.25,241.965,-331.651,0,0
176607.875,268.138,-314.087,0,0
177909.5,299.501,-310.021,0,0
179211.125,317.338,-310.663,0,0
180512.75,324.716,-311.156,0,0
181814.375,329.521,-293.9,0,0
183116.0,347.693,-269.655,0,0
184417.625,374.502,-246.426,0,0
185719.25,413.271,-228.726,0,0
187021,451.328,-221.161,0,0
188322,495.209,-217.513,0,0
189624,535.45,-215.417,0,0
190926,584.637,-211.488,0,0
192227,648.303,-220.095,0,0
193529,717.465,-250.683,0,0
194831,774.147,-300.751,0,0
196132,819.18,-362.679,0,0
197434,853.797,-432.721,0,0
198735,873.972,-510.619,0,0
200037,872.821,-592.17,0,0
201339,854.624,-676.353,0,0
202640.35,809.945,-749.161,0,0
203941.975,752.956,-793.73,0,0
205243.6,703.557,-826.701,0,0
206545.225,648.977,-843.669,0,0
207846.85,605.254,-850.072,0,0
209148.475,573.178,-853.455,0,0
210450.1,537.812,-863.463,0,0
211751.725,496.867,-863.626,0,0
213053.35,464.344,-852.727,0,0
214354.975,439.515,-840.969,0,0
215656.6,418.707,-829.77,0,0
216958.225,401.487,-817.15,0,0
218259.85,389.158,-804.674,0,0
219561,380.734,-793.51,0,0
220863,374.923,-784.826,0,0
222165,373.077,-777.602,0,0
223466,373.007,-777.118,0,0
224768,369.178,-780.201,0,0
226070,363.679,-782.763,0,0
227371,358.831,-787.658,0,0
228673,351.912,-795.971,0,0
229974,339.047,-806.103,0,0
231276,320.968,-812.659,0,0
232578,301.451,-814.459,0,0
233879,282.347,-813.015,0,0
235180.95,263.879,-809.473,0,0
236482.575,245.978,-803.306,0,0
237784.2,229.307,-795.05,0,0
239085.825,215.15,-785.321,0,0
240387.45,202.386,-774.869,0,0
241689.075,191.561,-764.11,0,0
242990.7,182.395,-753.721,0,0
244292.325,174.086,-744.431,0,0
245593.95,165.416,-735.94,0,0
246895.575,154.522,-727.573,0,0
248197.2,143.467,-715.032,0,0
249498.825,134.565,-700.433,0,0
250800,128.628,-684.629,0,0
252102,125.062,-668.97,0,0
253404,123.82,-653.414,0,0
254705,124.532,-638.486,0,0
256007,127.79,-624.26,0,0
257309,133.047,-611.909,0,0
258610,139.471,-601.773,0,0
259912,146.954,-593.013,0,0
261213,155.881,-586.787,0,0
262515,164.915,-584.627,0,0
263817,171.906,-585.415,0,0
265118,175.111,-588.548,0,0
266420,174.219,-589.395,0,0
267721.55,173.693,-587.813,0,0
269023.175,172.578,-584.987,0,0
270324.8,173.039,-578.346,0,0
271626.425,179.17,-571.816,0,0
272928.05,188.611,-568.32,0,0
274229.675,202.377,-569.918,0,0
275531.3,214.955,-582.68,0,0
276832.925,216.579,-602.417,0,0
278134.55,206.919,-617.911,0,0
279436.175,194.363,-626.375,0,0
280737.8,181.757,-631.035,0,0
282039.425,168.428,-633.683,0,0
283341,152.703,-632.075,0,0
284643,141.298,-625.344,0,0
285944,129.594,-619.417,0,0
287246,117.636,-608.013,0,0
288548,111.522,-590.251,0,0
289849,116.742,-572.028,0,0
291151,130.353,-563.842,0,0
292452,141.899,-566.507,0,0
293754,144.282,-575.763,0,0
295056,139.371,-577.208,0,0
296357,142.307,-578.578,0,0
297659,138.591,-587.099,0,0
298960.525,129.821,-589.793,0,0
300262.15,121.356,-589.574,0,0
301563.775,114.03,-586.258,0,0
302865.4,110.066,-582.986,0,0
304167.025,105.547,-582.646,0,0
305468.65,98.0828,-581.874,0,0
306770.275,89.7548,-577.993,0,0
308071.9,82.9574,-572.19,0,0
309373.525,77.4614,-565.869,0,0
310675.15,72.9934,-559.25,0,0
311976.775,69.5978,-552.4,0,0
313278.4,67.1601,-545.995,0,0
314580,65.1565,-539.949,0,0
315882,63.4097,-534.236,0,0
317183,62.1118,-528.429,0,0
318485,61.3236,-523.243,0,0
319787,60.3761,-518.637,0,0
321088,59.1806,-513.855,0,0
322390,57.8474,-509.046,0,0
323691,56.5143,-503.605,0,0
324993,56.0935,-496.904,0,0
326295,58.2974,-490.827,0,0
327596,61.1913,-487.363,0,0
328898,62.7967,-485.174,0,0
330200,63.8516,-483.4,0,0
331501.125,64.2237,-482.285,0,0
332802.75,63.1252,-481.435,0,0
334104.375,60.884,-479.556,0,0
335406.0,58.637,-476.454,0,0
336707.625,56.7605,-472.668,0,0
338009.25,55.511,-468.453,0,0
339310.875,54.8148,-464.058,0,0
340612.5,54.6425,-459.744,0,0
341914.125,54.8384,-455.534,0,0
343215.75,55.3646,-451.492,0,0
344517.375,56.2508,-447.708,0,0
345819.0,57.3401,-444.344,0,0
347121,58.604,-441.248,0,0
348422,59.8514,-438.368,0,0
349724,61.4209,-435.698,0,0
351025,63.1407,-433.741,0,0
352327,64.3368,-432.312,0,0
353629,65.2354,-430.843,0,0
354930,65.9818,-429.474,0,0
356232,66.6018,-427.953,0,0
357534,67.6492,-426.4,0,0
358835,69.0622,-425.499,0,0
360137,69.9669,-425.72,0,0
361438,69.8633,-426.135,0,0
362740.1,69.0326,-426.278,0,0
364041.725,67.4985,-426.148,0,0
365343.35,65.6384,-425.245,0,0
366644.975,63.8796,-423.519,0,0
367946.6,62.8677,-421.324,0,0
369248.225,62.579,-419.666,0,0
370549.85,61.8388,-418.715,0,0
371851.475,60.628,-417.5,0,0
373153.1,59.4767,-416.044,0,0
374454.725,58.1366,-414.687,0,0
375756.35,56.5559,-413.093,0,0
377057.975,55.2712,-411.118,0,0
378359.6,53.9206,-409.728,0,0
379661,51.2829,-407.95,0,0
380963,49.4054,-404.066,0,0
382264,49.4497,-401.261,0,0
383566,48.645,-399.429,0,0
384868,47.2733,-397.28,0,0
386169,45.7284,-394.734,0,0
387471,44.3106,-391.5,0,0
388773,43.5143,-387.824,0,0
390074,43.6491,-384.406,0,0
391376,44.2357,-382.021,0,0
392677,43.7538,-380.457,0,0
393979,42.2988,-378.216,0,0
395280.7,40.9876,-374.804,0,0
396582.325,40.4461,-371.051,0,0
397883.95,40.491,-367.359,0,0
399185.575,40.8903,-363.976,0,0
400006.6,41.21,-361.958,0,0