File: Accelerated corrosion test data/2025-10-05_18-00-02/sample_4.csv
Frequency (Hz),Impedance (ohms),Phase (Radians),Temperature (C),Humidity (%)
10000.0,263.974,-11824.4,0,0
11301.625,234.858,-10475.3,0,0
12603.25,212.881,-9398.02,0,0
13904.875,193.656,-8521.41,0,0
15206.5,182.288,-7800.41,0,0
16508.125,187.036,-7184.94,0,0
17809.75,156.846,-6681.86,0,0
19111.375,145.782,-6227.72,0,0
20413.0,141.623,-5829.3,0,0
21714.625,145.351,-5484.25,0,0
23016.25,125.927,-5186.52,0,0
24317.875,116.721,-4902.61,0,0
25619.5,112.607,-4650.83,0,0
26921.1,106.968,-4422.83,0,0
28222.7,119.893,-4217.96,0,0
29524.4,112.636,-4041.41,0,0
30826,99.2943,-3869.91,0,0
32127.6,99.2232,-3710.51,0,0
33429.2,90.7462,-3570.5,0,0
34730.9,85.3502,-3432.6,0,0
36032.5,82.3985,-3305.58,0,0
37334.1,80.1335,-3187.61,0,0
38635.7,77.3173,-3076.16,0,0
39937.4,77.1832,-2970.76,0,0
41239,79.6893,-2876.3,0,0
42540.6,79.0988,-2788.84,0,0
43842.225,74.0658,-2705.67,0,0
45143.85,71.642,-2625.04,0,0
46445.475,70.684,-2548.42,0,0
47747.1,70.3522,-2478.46,0,0
49048.725,66.6307,-2409.84,0,0
50350.35,64.7873,-2342.74,0,0
51651.975,64.271,-2278.04,0,0
52953.6,66.0422,-2215.57,0,0
54255.225,74.0428,-2159.51,0,0
55556.85,72.0833,-2116.3,0,0
56858.475,66.0586,-2063.1,0,0
58160.1,67.0223,-2010.82,0,0
59461.7,71.3971,-1960.26,0,0
60763.3,80.5829,-1922.91,0,0
62065,70.0492,-1889.79,0,0
63366.6,64.8039,-1844.06,0,0
64668.2,64.8246,-1800.89,0,0
65969.8,66.8212,-1760.87,0,0
67271.5,70.936,-1725.07,0,0
68573.1,73.9569,-1696.4,0,0
69874.7,66.3626,-1665.97,0,0
71176.3,65.2718,-1632.13,0,0
72478,59.4781,-1600.86,0,0
73779.6,58.0159,-1564.43,0,0
75081.2,60.1576,-1531.9,0,0
76382.825,62.4965,-1503.19,0,0
77684.45,65.2394,-1475.66,0,0
78986.075,63.9483,-1453.09,0,0
80287.7,60.9734,-1426.29,0,0
81589.325,60.3502,-1400.3,0,0
82890.95,59.0986,-1375.27,0,0
84192.575,57.9716,-1350.54,0,0
85494.2,57.2467,-1326.15,0,0
86795.825,56.5761,-1302.73,0,0
88097.45,55.3525,-1280.4,0,0
89399.075,53.7133,-1256.14,0,0
90700.7,53.709,-1233.02,0,0
92002.3,53.974,-1210.1,0,0
93303.9,55.1145,-1189.42,0,0
94605.6,53.7888,-1168.91,0,0
95907.2,53.3284,-1146.38,0,0
97208.8,54.2593,-1124.9,0,0
98510.4,55.5778,-1103.56,0,0
99812.1,58.354,-1082.95,0,0
101114,62.7191,-1064.66,0,0
102415,61.5376,-1050.32,0,0
103717,58.6489,-1027.67,0,0
105019,62.5896,-1004.11,0,0
106320.175,69.1734,-984.044,0,0
107621.8,75.9085,-966.362,0,0
108923.425,84.1599,-949.789,0,0
110225.05,92.0665,-937.236,0,0
111526.675,98.2879,-926.426,0,0
112828.3,103.321,-916.698,0,0
114129.925,106.791,-908.191,0,0
115431.55,108.569,-900.246,0,0
116733.175,107.765,-892.142,0,0
118034.8,105.229,-881.387,0,0
119336.425,106.13,-867.176,0,0
120638.05,110.989,-861.962,0,0
121939.675,104.067,-855.376,0,0
123241,99.2185,-842.982,0,0
124543,95.9763,-830.387,0,0
125845,93.4905,-817.771,0,0
127146,90.2562,-806.29,0,0
128448,85.72,-793.96,0,0
129749,79.6939,-778.977,0,0
131051,75.4395,-761.368,0,0
132353,73.2388,-742.834,0,0
133654,72.6613,-724.081,0,0
134956,73.4459,-705.3,0,0
136258,75.7616,-687.078,0,0
137559,78.6074,-669.868,0,0
138860.775,80.485,-652.256,0,0
140162.4,83.7942,-633.436,0,0
141464.025,88.887,-614.487,0,0
142765.65,94.8085,-596.27,0,0
144067.275,101.559,-577.818,0,0
145368.9,109.574,-559.255,0,0
146670.525,119.165,-540.693,0,0
147972.15,130.277,-522.84,0,0
149273.775,142.981,-504.724,0,0
150575.4,158.439,-487.136,0,0
151877.025,177.519,-471.558,0,0
153178.65,199.454,-460.176,0,0
154480,220.434,-455.548,0,0
155782,237.028,-451.888,0,0
157084,251.836,-449.627,0,0
158385,266.842,-443.195,0,0
159687,288.455,-440.936,0,0
160988,306.119,-449.14,0,0
162290,311.918,-455.869,0,0
163592,317.192,-454.08,0,0
164893,327.846,-447.302,0,0
166195,344.374,-443.262,0,0
167497,369.795,-443.199,0,0
168798,397.009,-461.694,0,0
170100,410.62,-491.914,0,0
171401.375,404.535,-528.881,0,0
172703.0,378.434,-551.688,0,0
174004.625,345.306,-555.06,0,0
175306.25,318.972,-542.032,0,0
176607.875,302.69,-520.314,0,0
177909.5,297.017,-497.071,0,0
179211.125,297.128,-476.891,0,0
180512.75,300.372,-458.365,0,0
181814.375,304.296,-441.375,0,0
183116.0,307.825,-423.556,0,0
184417.625,313.147,-402.03,0,0
185719.25,322.693,-378.098,0,0
187021,337.64,-352.704,0,0
188322,358.133,-326.658,0,0
189624,385.863,-301.137,0,0
190926,422.157,-277.929,0,0
192227,466.493,-261.07,0,0
193529,516.776,-252.944,0,0
194831,569.887,-253.929,0,0
196132,625.094,-263.519,0,0
197434,684.743,-281.88,0,0
198735,747.984,-317.778,0,0
200037,804.38,-376.221,0,0
201339,840.134,-451.319,0,0
202640.35,850.528,-530.233,0,0
203941.975,843.107,-598.579,0,0
205243.6,827.192,-660.828,0,0
206545.225,802.541,-716.75,0,0
207846.85,772.137,-770.763,0,0
209148.475,722.129,-814.849,0,0
210450.1,670.197,-835.151,0,0
211751.725,625.894,-842.555,0,0
213053.35,591.397,-840.425,0,0
214354.975,568.218,-835.532,0,0
215656.6,555.618,-837.826,0,0
216958.225,539.397,-848.066,0,0
218259.85,519.547,-856.9,0,0
219561,499.196,-864.424,0,0
220863,477.614,-873.343,0,0
222165,452.496,-879.808,0,0
223466,427.569,-882.181,0,0
224768,402.835,-884.133,0,0
226070,375.516,-884.752,0,0
227371,346.114,-879.388,0,0
228673,317.88,-868.928,0,0
229974,293.554,-852.116,0,0
231276,276.099,-833.27,0,0
232578,262.785,-815.456,0,0
233879,253.03,-797.884,0,0
235180.95,246.278,-782.122,0,0
236482.575,241.171,-768.67,0,0
237784.2,236.88,-755.421,0,0
239085.825,235.537,-744.006,0,0
240387.45,234.306,-735.99,0,0
241689.075,231.543,-729.975,0,0
242990.7,227.548,-724.477,0,0
244292.325,221.836,-718.772,0,0
245593.95,214.843,-711.199,0,0
246895.575,209.055,-701.429,0,0
248197.2,206.168,-691.637,0,0
249498.825,203.283,-684.134,0,0
250800,199.531,-676.284,0,0
252102,194.771,-668.962,0,0
253404,187.513,-658.602,0,0
254705,183.128,-643.843,0,0
256007,181.424,-627.056,0,0
257309,185.221,-608.548,0,0
258610,194.104,-591.144,0,0
259912,209.122,-576.117,0,0
261213,228.624,-567.548,0,0
262515,248.985,-566.328,0,0
263817,269.78,-571.253,0,0
265118,286.514,-583.951,0,0
266420,298.653,-602.182,0,0
267721.55,300.732,-624.522,0,0
269023.175,295.65,-644.032,0,0
270324.8,281.456,-659.841,0,0
271626.425,269.013,-664.259,0,0
272928.05,260.89,-671.374,0,0
274229.675,249.011,-679.196,0,0
275531.3,231.891,-685.6,0,0
276832.925,210.982,-684.236,0,0
278134.55,192.768,-674.157,0,0
279436.175,182.584,-658.853,0,0
280737.8,180.905,-646.65,0,0
282039.425,179.326,-639.956,0,0
283341,177.772,-631.817,0,0
284643,178.483,-628.063,0,0
285944,176.423,-625.522,0,0
287246,170.818,-622.123,0,0
288548,165.541,-612.599,0,0
289849,167.422,-599.325,0,0
291151,178.237,-591.065,0,0
292452,190.309,-592.577,0,0
293754,198.59,-601.62,0,0
295056,198.336,-615.096,0,0
296357,189.134,-625.494,0,0
297659,177.056,-628.883,0,0
298960.525,166.908,-627.853,0,0
300262.15,158.484,-625.822,0,0
301563.775,150.118,-623.073,0,0
302865.4,142.483,-618.406,0,0
304167.025,136.042,-613.135,0,0
305468.65,131.027,-606.958,0,0
306770.275,127.645,-600.885,0,0
308071.9,125.628,-595.928,0,0
309373.525,123.456,-592.294,0,0
310675.15,120.68,-589.114,0,0
311976.775,117.128,-585.576,0,0
313278.4,113.977,-581.153,0,0
314580,111.798,-576.534,0,0
315882,110.335,-572.621,0,0
317183,109.097,-569.636,0,0
318485,107.476,-567.773,0,0
319787,104.878,-566.357,0,0
321088,100.722,-565.338,0,0
322390,94.554,-563.177,0,0
323691,87.7669,-557.851,0,0
324993,83.388,-550.463,0,0
326295,80.6546,-543.759,0,0
327596,78.4456,-537.043,0,0
328898,76.8953,-530.083,0,0
330200,76.9106,-522.933,0,0
331501.125,78.3109,-517.284,0,0
332802.75,79.5678,-513.488,0,0
334104.375,79.6904,-510.647,0,0
335406.0,78.4773,-507.465,0,0
336707.625,76.6447,-503.273,0,0
338009.25,75.1708,-497.729,0,0
339310.875,75.0434,-491.446,0,0
340612.5,76.5639,-485.19,0,0
341914.125,79.8173,-479.715,0,0
343215.75,84.3972,-476.52,0,0
344517.375,87.9375,-476.281,0,0
345819.0,89.2626,-476.923,0,0
347121,88.8872,-477.278,0,0
348422,87.3881,-476.916,0,0
349724,85.3443,-475.496,0,0
351025,83.2017,-473.124,0,0
352327,81.3572,-469.914,0,0
353629,80.2586,-465.883,0,0
354930,80.6779,-462.173,0,0
356232,81.0428,-459.896,0,0
357534,80.5635,-457.98,0,0
358835,79.0676,-455.593,0,0
360137,77.6777,-451.537,0,0
361438,77.6246,-447.201,0,0
362740.1,78.4605,-443.184,0,0
364041.725,79.6517,-440.294,0,0
365343.35,79.7949,-437.593,0,0
366644.975,79.8667,-433.697,0,0
367946.6,81.2171,-428.958,0,0
369248.225,84.3239,-424.634,0,0
370549.85,88.7942,-421.629,0,0
371851.475,94.1917,-420.733,0,0
373153.1,98.747,-422.914,0,0
374454.725,100.173,-426.585,0,0
375756.35,99.3803,-428.926,0,0
377057.975,98.087,-430.07,0,0
378359.6,96.8271,-430.611,0,0
379661,95.4439,-430.907,0,0
380963,93.8327,-430.928,0,0
382264,92.3401,-429.886,0,0
383566,92.6703,-429.909,0,0
384868,90.9304,-432.385,0,0
386169,86.2518,-433.564,0,0
387471,80.7864,-431.738,0,0
388773,76.9408,-427.354,0,0
390074,76.1432,-422.873,0,0
391376,76.9712,-420.815,0,0
392677,76.1028,-421.308,0,0
393979,72.213,-421.099,0,0
395280.7,67.767,-418.379,0,0
396582.325,64.3945,-414.152,0,0
397883.95,62.1219,-409.541,0,0
399185.575,60.4724,-404.835,0,0
400006.6,59.7853,-401.78,0,0