File: Accelerated corrosion test data/2025-10-05_18-00-02/sample_6.csv
Frequency (Hz),Impedance (ohms),Phase (Radians),Temperature (C),Humidity (%)
10000.0,4252.71,-6479.06,0,0
11301.625,3625.39,-6112.79,0,0
12603.25,3124.99,-5760.29,0,0
13904.875,2718.73,-5436.14,0,0
15206.5,2385.81,-5131.22,0,0
16508.125,2110.7,-4852.56,0,0
17809.75,1880.96,-4596.75,0,0
19111.375,1688.95,-4360.91,0,0
20413.0,1522.94,-4148.36,0,0
21714.625,1380.95,-3950.56,0,0
23016.25,1263.38,-3764.12,0,0
24317.875,1156.83,-3605.33,0,0
25619.5,1063.29,-3451.16,0,0
26921.1,980.901,-3307.38,0,0
28222.7,910.968,-3175.94,0,0
29524.4,846.218,-3050.5,0,0
30826,791.747,-2936.59,0,0
32127.6,742.11,-2826.5,0,0
33429.2,703.879,-2726.88,0,0
34730.9,663.516,-2640.25,0,0
36032.5,626.37,-2558.13,0,0
37334.1,588.25,-2476.95,0,0
38635.7,554.734,-2397.38,0,0
39937.4,527.468,-2321.36,0,0
41239,502.142,-2252.07,0,0
42540.6,479.219,-2187.74,0,0
43842.225,458.925,-2120.8,0,0
45143.85,443.848,-2059.16,0,0
46445.475,433.537,-2005.2,0,0
47747.1,422.399,-1957.68,0,0
49048.725,410.33,-1917.51,0,0
50350.35,389.211,-1881.54,0,0
51651.975,366.221,-1836.58,0,0
52953.6,349.845,-1791.68,0,0
54255.225,332.325,-1750.09,0,0
55556.85,316.173,-1708.02,0,0
56858.475,303.841,-1661.88,0,0
58160.1,298.861,-1623.9,0,0
59461.7,289.22,-1590.95,0,0
60763.3,276.96,-1557.4,0,0
62065,264.501,-1521.47,0,0
63366.6,260.727,-1483.65,0,0
64668.2,254.605,-1458.36,0,0
65969.8,245.516,-1428.69,0,0
67271.5,234.298,-1399.78,0,0
68573.1,225.118,-1366.58,0,0
69874.7,219.492,-1334.21,0,0
71176.3,216.858,-1302.94,0,0
72478,216.729,-1274.61,0,0
73779.6,216.963,-1250.51,0,0
75081.2,215.412,-1227.55,0,0
76382.825,214.058,-1206.13,0,0
77684.45,212.155,-1185.6,0,0
78986.075,209.646,-1166.31,0,0
80287.7,206.381,-1147.51,0,0
81589.325,202.364,-1128.71,0,0
82890.95,197.974,-1109.66,0,0
84192.575,193.632,-1089.58,0,0
85494.2,191.035,-1068.77,0,0
86795.825,190.331,-1049.6,0,0
88097.45,188.87,-1031.75,0,0
89399.075,188.7,-1013.35,0,0
90700.7,189.772,-997.792,0,0
92002.3,187.615,-983.601,0,0
93303.9,186.335,-967.972,0,0
94605.6,186.056,-950.724,0,0
95907.2,188.525,-937.576,0,0
97208.8,187.962,-927.371,0,0
98510.4,186.498,-913.078,0,0
99812.1,190.27,-903.576,0,0
101114,186.657,-897.815,0,0
102415,180.962,-887.927,0,0
103717,174.194,-879.772,0,0
105019,162.621,-868.127,0,0
106320.175,151.702,-847.737,0,0
107621.8,149.644,-824.877,0,0
108923.425,152.213,-806.096,0,0
110225.05,154.564,-789.989,0,0
111526.675,158.22,-774.272,0,0
112828.3,162.767,-761.145,0,0
114129.925,167.661,-749.863,0,0
115431.55,171.768,-740.604,0,0
116733.175,176.788,-733.606,0,0
118034.8,175.494,-729.49,0,0
119336.425,173.052,-718.618,0,0
120638.05,177.829,-707.179,0,0
121939.675,179.157,-706.9,0,0
123241,174.25,-699.851,0,0
124543,171.439,-691.75,0,0
125845,168.153,-682.814,0,0
127146,164.847,-672.856,0,0
128448,163.761,-660.706,0,0
129749,165.625,-651.845,0,0
131051,165.114,-645.21,0,0
132353,162.907,-638.365,0,0
133654,159.129,-631.113,0,0
134956,154.073,-621.534,0,0
136258,149.567,-609.819,0,0
137559,146.746,-596.889,0,0
138860.775,145.253,-583.658,0,0
140162.4,145.029,-570.101,0,0
141464.025,146.575,-556.703,0,0
142765.65,148.605,-545.029,0,0
144067.275,150.803,-532.701,0,0
145368.9,155.315,-522.412,0,0
146670.525,157.057,-514.529,0,0
147972.15,156.899,-505.282,0,0
149273.775,156.378,-493.654,0,0
150575.4,156.997,-479.663,0,0
151877.025,160.791,-463.457,0,0
153178.65,171.46,-450.721,0,0
154480,178.131,-444.6,0,0
155782,182.697,-434.171,0,0
157084,192.625,-426.786,0,0
158385,197.045,-424.491,0,0
159687,198.128,-419.288,0,0
160988,199.371,-411.875,0,0
162290,200.219,-404.519,0,0
163592,200.705,-395.141,0,0
164893,200.726,-384.497,0,0
166195,202.918,-371.101,0,0
167497,206.779,-358.797,0,0
168798,211.126,-345.912,0,0
170100,216.586,-333.565,0,0
171401.375,221.615,-320.811,0,0
172703.0,227.254,-307.416,0,0
174004.625,232.861,-293.411,0,0
175306.25,238.326,-276.975,0,0
176607.875,246.334,-257.871,0,0
177909.5,257.828,-236.828,0,0
179211.125,274.035,-214.523,0,0
180512.75,296.471,-194.669,0,0
181814.375,321.621,-179.109,0,0
183116.0,347.903,-168.168,0,0
184417.625,373.228,-159.079,0,0
185719.25,397.116,-153.336,0,0
187021,416.122,-146.391,0,0
188322,432.997,-129.835,0,0
189624,459.526,-103.373,0,0
190926,504.437,-72.9622,0,0
192227,568.272,-54.1206,0,0
193529,639.275,-49.6631,0,0
194831,721.28,-60.3022,0,0
196132,803.784,-96.0205,0,0
197434,878.513,-150.338,0,0
198735,942.392,-218.414,0,0
200037,997.528,-302.312,0,0
201339,1038.2,-402.737,0,0
202640.35,1052.02,-523.333,0,0
203941.975,1022.53,-638.588,0,0
205243.6,969.822,-732.07,0,0
206545.225,903.622,-803.121,0,0
207846.85,834.257,-851.021,0,0
209148.475,770.11,-882.524,0,0
210450.1,713.293,-906.832,0,0
211751.725,655.2,-932.807,0,0
213053.35,586.481,-945.537,0,0
214354.975,523.457,-940.539,0,0
215656.6,470.344,-925.876,0,0
216958.225,427.053,-907.68,0,0
218259.85,390.159,-888.011,0,0
219561,358.623,-867.212,0,0
220863,331.821,-845.836,0,0
222165,308.847,-823.687,0,0
223466,289.879,-800.223,0,0
224768,276.557,-775.957,0,0
226070,269.799,-753.312,0,0
227371,268.822,-736.227,0,0
228673,267.361,-727.571,0,0
229974,260.327,-721.793,0,0
231276,249.583,-713.596,0,0
232578,238.999,-701.901,0,0
233879,230.429,-688.005,0,0
235180.95,224.732,-673.364,0,0
236482.575,221.223,-659.111,0,0
237784.2,219.548,-645.757,0,0
239085.825,219.266,-633.053,0,0
240387.45,220.195,-621.278,0,0
241689.075,222.264,-610.082,0,0
242990.7,225.537,-599.563,0,0
244292.325,230.28,-589.683,0,0
245593.95,236.649,-580.697,0,0
246895.575,245.176,-572.565,0,0
248197.2,256.972,-567.418,0,0
249498.825,269.374,-567.275,0,0
250800,279.639,-569.295,0,0
252102,292.557,-572.56,0,0
253404,306.988,-583.751,0,0
254705,315.989,-603.039,0,0
256007,315.709,-625.631,0,0
257309,306.723,-646.368,0,0
258610,292.295,-662.35,0,0
259912,274.907,-673.555,0,0
261213,255.883,-679.807,0,0
262515,237.501,-681.326,0,0
263817,221.071,-679.666,0,0
265118,206.162,-676.274,0,0
266420,192.696,-671.419,0,0
267721.55,180.868,-665.571,0,0
269023.175,170.427,-659.331,0,0
270324.8,160.925,-652.896,0,0
271626.425,152.257,-646.248,0,0
272928.05,144.248,-639.344,0,0
274229.675,136.932,-632.172,0,0
275531.3,130.341,-624.736,0,0
276832.925,124.526,-617.244,0,0
278134.55,119.316,-609.684,0,0
279436.175,114.791,-601.962,0,0
280737.8,111.49,-594.163,0,0
282039.425,109.147,-587.431,0,0
283341,106.57,-581.338,0,0
284643,104.224,-575.172,0,0
285944,102.521,-569.379,0,0
287246,100.86,-564.546,0,0
288548,98.6611,-559.657,0,0
289849,96.8035,-554.615,0,0
291151,95.2133,-549.961,0,0
292452,93.7425,-545.698,0,0
293754,92.0625,-541.924,0,0
295056,89.6508,-538.39,0,0
296357,86.6903,-534.196,0,0
297659,83.8318,-528.928,0,0
298960.525,82.2541,-522.993,0,0
300262.15,81.875,-518.063,0,0
301563.775,81.3228,-513.958,0,0
302865.4,80.529,-510.133,0,0
304167.025,79.5249,-506.269,0,0
305468.65,78.8155,-502.165,0,0
306770.275,78.8183,-498.631,0,0
308071.9,78.3995,-496.152,0,0
309373.525,77.2119,-493.616,0,0
310675.15,75.9086,-490.848,0,0
311976.775,74.3278,-488.023,0,0
313278.4,72.6353,-485.033,0,0
314580,71.0146,-481.719,0,0
315882,69.5459,-478.451,0,0
317183,68.2099,-475.225,0,0
318485,66.7734,-471.933,0,0
319787,65.3114,-468.604,0,0
321088,63.8805,-465.183,0,0
322390,62.7023,-461.551,0,0
323691,61.7415,-458.168,0,0
324993,60.6997,-454.843,0,0
326295,59.6539,-451.556,0,0
327596,58.6074,-448.163,0,0
328898,57.6873,-444.805,0,0
330200,56.8291,-441.347,0,0
331501.125,56.0686,-437.932,0,0
332802.75,55.3682,-434.564,0,0
334104.375,54.7271,-431.167,0,0
335406.0,54.3479,-427.828,0,0
336707.625,54.0215,-424.635,0,0
338009.25,53.7119,-421.541,0,0
339310.875,53.2508,-418.441,0,0
340612.5,52.9945,-415.27,0,0
341914.125,52.9098,-412.186,0,0
343215.75,53.0898,-409.288,0,0
344517.375,53.1551,-407.078,0,0
345819.0,52.4733,-404.796,0,0
347121,51.8281,-401.997,0,0
348422,51.3642,-399.016,0,0
349724,51.1192,-396.095,0,0
351025,50.9627,-393.261,0,0
352327,50.9358,-390.444,0,0
353629,51.0207,-387.83,0,0
354930,50.9976,-385.378,0,0
356232,50.8325,-382.925,0,0
357534,50.7114,-380.322,0,0
358835,50.8676,-377.813,0,0
360137,50.9704,-375.568,0,0
361438,50.897,-373.524,0,0
362740.1,50.6029,-371.343,0,0
364041.725,50.2486,-369.07,0,0
365343.35,49.944,-366.654,0,0
366644.975,49.8084,-364.203,0,0
367946.6,49.6552,-361.79,0,0
369248.225,49.5638,-359.358,0,0
370549.85,49.576,-356.938,0,0
371851.475,49.7033,-354.587,0,0
373153.1,50.0095,-352.45,0,0
374454.725,50.1398,-350.77,0,0
375756.35,49.7625,-349.099,0,0
377057.975,49.1983,-347.046,0,0
378359.6,48.6451,-344.942,0,0
379661,48.0778,-342.653,0,0
380963,47.475,-340.053,0,0
382264,47.1977,-337.23,0,0
383566,47.539,-334.568,0,0
384868,47.5549,-332.627,0,0
386169,47.1887,-330.412,0,0
387471,46.8087,-327.951,0,0
388773,46.5568,-325.377,0,0
390074,46.4032,-322.768,0,0
391376,46.3274,-320.105,0,0
392677,46.306,-317.468,0,0
393979,46.3439,-314.821,0,0
395280.7,46.4225,-312.165,0,0
396582.325,46.5774,-309.481,0,0
397883.95,46.7662,-306.768,0,0
399185.575,46.9785,-304.068,0,0
400006.6,47.1654,-302.385,0,0