File: Accelerated corrosion test data/2025-10-05_18-00-02/sample_3.csv
Frequency (Hz),Impedance (ohms),Phase (Radians),Temperature (C),Humidity (%)
10000.0,252.222,-11742.8,0,0
11301.625,224.958,-10401.7,0,0
12603.25,203.915,-9335.44,0,0
13904.875,186.031,-8466.02,0,0
15206.5,173.702,-7740.24,0,0
16508.125,162.434,-7147.52,0,0
17809.75,156.697,-6620.29,0,0
19111.375,146.591,-6170,0,0
20413.0,157.605,-5771.17,0,0
21714.625,138.549,-5452.16,0,0
23016.25,128.301,-5147.86,0,0
24317.875,119.321,-4869.4,0,0
25619.5,113.896,-4622.78,0,0
26921.1,108.799,-4393.66,0,0
28222.7,104.001,-4188.65,0,0
29524.4,110.35,-4010,0,0
30826,100.406,-3840.09,0,0
32127.6,101.134,-3676.91,0,0
33429.2,99.9254,-3551.49,0,0
34730.9,87.9971,-3414.76,0,0
36032.5,83.628,-3287.49,0,0
37334.1,80.6806,-3170.21,0,0
38635.7,78.2894,-3060.86,0,0
39937.4,76.0078,-2958.94,0,0
41239,74.5894,-2862.26,0,0
42540.6,73.6504,-2772.84,0,0
43842.225,71.983,-2687.55,0,0
45143.85,71.0911,-2608.32,0,0
46445.475,70.1897,-2532.78,0,0
47747.1,70.2872,-2460.51,0,0
49048.725,68.8709,-2395.31,0,0
50350.35,66.9222,-2330.59,0,0
51651.975,66.4387,-2268.02,0,0
52953.6,66.874,-2208.49,0,0
54255.225,69.5934,-2153.87,0,0
55556.85,67.0087,-2106.81,0,0
56858.475,61.9314,-2054.12,0,0
58160.1,61.4073,-2002.27,0,0
59461.7,61.9243,-1953.23,0,0
60763.3,63.3455,-1906.67,0,0
62065,65.5516,-1862.26,0,0
63366.6,69.181,-1818.87,0,0
64668.2,77.9394,-1777.18,0,0
65969.8,91.9123,-1752.53,0,0
67271.5,76.6924,-1726.99,0,0
68573.1,76.5612,-1689.84,0,0
69874.7,75.7021,-1660.82,0,0
71176.3,70.3176,-1630.31,0,0
72478,68.9993,-1597.64,0,0
73779.6,67.269,-1569.24,0,0
75081.2,63.7302,-1540.94,0,0
76382.825,60.2885,-1511.61,0,0
77684.45,57.9986,-1482.7,0,0
78986.075,55.8715,-1454.26,0,0
80287.7,54.3954,-1426.37,0,0
81589.325,53.4026,-1399.21,0,0
82890.95,52.8845,-1372.87,0,0
84192.575,52.6818,-1347.28,0,0
85494.2,52.6596,-1322.38,0,0
86795.825,52.9097,-1298.13,0,0
88097.45,53.4772,-1274.23,0,0
89399.075,54.8546,-1250.65,0,0
90700.7,57.2144,-1228.8,0,0
92002.3,59.9266,-1208.09,0,0
93303.9,63.2016,-1189.59,0,0
94605.6,64.3493,-1175.18,0,0
95907.2,58.7222,-1157.99,0,0
97208.8,57.6479,-1137.05,0,0
98510.4,57.381,-1117.9,0,0
99812.1,56.6343,-1099.29,0,0
101114,55.9229,-1079.63,0,0
102415,57.0963,-1059.17,0,0
103717,60.9232,-1041.52,0,0
105019,64.3362,-1027.69,0,0
106320.175,63.171,-1014.26,0,0
107621.8,60.395,-998.351,0,0
108923.425,58.6964,-980.477,0,0
110225.05,58.8563,-961.731,0,0
111526.675,61.4131,-943.939,0,0
112828.3,63.4685,-927.923,0,0
114129.925,65.2334,-911.81,0,0
115431.55,67.5915,-895.102,0,0
116733.175,71.5132,-878.749,0,0
118034.8,77.2321,-863.299,0,0
119336.425,83.9038,-851.829,0,0
120638.05,89.0838,-845.547,0,0
121939.675,86.8818,-836.897,0,0
123241,87.2261,-824.005,0,0
124543,88.5293,-812.988,0,0
125845,89.4015,-802.766,0,0
127146,88.4021,-793.096,0,0
128448,86.5041,-781.879,0,0
129749,84.7996,-768.384,0,0
131051,86.0784,-755.229,0,0
132353,85.6661,-744.113,0,0
133654,85.0053,-732.088,0,0
134956,83.5296,-719.684,0,0
136258,82.1836,-705.894,0,0
137559,82.0922,-690.812,0,0
138860.775,83.4242,-677.278,0,0
140162.4,82.6207,-663.671,0,0
141464.025,82.5981,-649.197,0,0
142765.65,82.1314,-633.379,0,0
144067.275,82.5903,-616.173,0,0
145368.9,84.3197,-598.275,0,0
146670.525,87.0317,-579.356,0,0
147972.15,91.6881,-559.483,0,0
149273.775,98.4389,-539.359,0,0
150575.4,109.107,-518.965,0,0
151877.025,122.138,-502.483,0,0
153178.65,134.87,-489.227,0,0
154480,144.711,-476.945,0,0
155782,153.3,-460.804,0,0
157084,164.894,-443.779,0,0
158385,180.615,-431.134,0,0
159687,187.576,-416.061,0,0
160988,202.962,-387.762,0,0
162290,230.531,-362.89,0,0
163592,268.94,-344.591,0,0
164893,316.418,-336.167,0,0
166195,369.855,-350.269,0,0
167497,407.339,-385.449,0,0
168798,425.112,-426.277,0,0
170100,423.018,-466.034,0,0
171401.375,404.064,-481.456,0,0
172703.0,398.707,-482.11,0,0
174004.625,406.241,-487.918,0,0
175306.25,411.074,-505.547,0,0
176607.875,402.018,-524.617,0,0
177909.5,383.681,-537.506,0,0
179211.125,361.531,-530.508,0,0
180512.75,356.303,-516.959,0,0
181814.375,359.991,-512.933,0,0
183116.0,352.916,-518.722,0,0
184417.625,339.849,-513.783,0,0
185719.25,327.97,-500.786,0,0
187021,323.409,-477.764,0,0
188322,331.079,-459.327,0,0
189624,338.035,-446.492,0,0
190926,347.586,-433.052,0,0
192227,356.878,-419.381,0,0
193529,368.696,-402.52,0,0
194831,393.287,-384.288,0,0
196132,424.921,-382.989,0,0
197434,448.896,-395.243,0,0
198735,460.4,-404.567,0,0
200037,469.107,-407.164,0,0
201339,473.847,-405.151,0,0
202640.35,490.002,-394.302,0,0
203941.975,520.104,-391.569,0,0
205243.6,549.413,-402.791,0,0
206545.225,564.656,-420.863,0,0
207846.85,581.434,-423.452,0,0
209148.475,610.475,-431.052,0,0
210450.1,642.946,-451.82,0,0
211751.725,669.598,-481.442,0,0
213053.35,690.98,-516.598,0,0
214354.975,706.652,-557.953,0,0
215656.6,715.734,-602.779,0,0
216958.225,714.189,-653.28,0,0
218259.85,698.5,-697.995,0,0
219561,676.496,-735.569,0,0
220863,658.492,-771.236,0,0
222165,626.231,-807.964,0,0
223466,582.057,-833.334,0,0
224768,540.675,-835.242,0,0
226070,518.504,-831.844,0,0
227371,502.512,-841.257,0,0
228673,478.122,-853.994,0,0
229974,448.723,-861.379,0,0
231276,419.238,-863.043,0,0
232578,392.474,-860.375,0,0
233879,368.143,-856.001,0,0
235180.95,345.228,-851.435,0,0
236482.575,320.474,-846.069,0,0
237784.2,296.316,-835.9,0,0
239085.825,272.99,-821.262,0,0
240387.45,256.007,-802.239,0,0
241689.075,243.703,-784.147,0,0
242990.7,235.867,-766.152,0,0
244292.325,231.654,-751.12,0,0
245593.95,227.906,-739.641,0,0
246895.575,223.371,-729.027,0,0
248197.2,219.311,-717.958,0,0
249498.825,218.112,-707.598,0,0
250800,216.159,-701.689,0,0
252102,209.913,-695.586,0,0
253404,201.829,-684.9,0,0
254705,197.742,-669.51,0,0
256007,198.832,-653.067,0,0
257309,206.741,-639.536,0,0
258610,215.679,-631.978,0,0
259912,226.218,-625.279,0,0
261213,240.094,-625.991,0,0
262515,250.36,-637.496,0,0
263817,248.726,-651.723,0,0
265118,238.842,-662.223,0,0
266420,224.239,-665.323,0,0
267721.55,210.424,-660.462,0,0
269023.175,201.533,-651.433,0,0
270324.8,197.052,-641.949,0,0
271626.425,195.448,-632.67,0,0
272928.05,196.594,-625.875,0,0
274229.675,196.702,-619.766,0,0
275531.3,199.817,-612.861,0,0
276832.925,206.959,-609.105,0,0
278134.55,214.319,-612.276,0,0
279436.175,216.29,-620.466,0,0
280737.8,211.745,-627.876,0,0
282039.425,204.14,-631.9,0,0
283341,194.766,-632.761,0,0
284643,185.976,-630.151,0,0
285944,178.106,-625.218,0,0
287246,172.57,-617.645,0,0
288548,171.781,-609.882,0,0
289849,172.512,-606.268,0,0
291151,171.889,-603.928,0,0
292452,169.801,-601.419,0,0
293754,168.864,-597.094,0,0
295056,171.097,-593.721,0,0
296357,174.1,-594.861,0,0
297659,173.833,-598.907,0,0
298960.525,169.606,-602.822,0,0
300262.15,163.368,-604.599,0,0
301563.775,156.311,-604.479,0,0
302865.4,149.202,-602.349,0,0
304167.025,142.96,-598.825,0,0
305468.65,137.595,-594.395,0,0
306770.275,133.336,-589.228,0,0
308071.9,130.874,-584.283,0,0
309373.525,128.993,-581.062,0,0
310675.15,125.827,-578.571,0,0
311976.775,121.759,-575.465,0,0
313278.4,117.043,-570.899,0,0
314580,113.602,-564.287,0,0
315882,112.854,-557.52,0,0
317183,114.016,-552.504,0,0
318485,114.841,-549.648,0,0
319787,114.636,-547.342,0,0
321088,114.252,-544.696,0,0
322390,114.718,-542.634,0,0
323691,114.873,-542.377,0,0
324993,113.373,-542.91,0,0
326295,110.074,-543.078,0,0
327596,105.78,-542.095,0,0
328898,101.645,-539.903,0,0
330200,97.7499,-537.325,0,0
331501.125,93.5632,-534.515,0,0
332802.75,89.1293,-530.715,0,0
334104.375,84.9452,-526.225,0,0
335406.0,81.1782,-520.554,0,0
336707.625,78.5913,-514.273,0,0
338009.25,76.9666,-508.203,0,0
339310.875,75.9748,-501.794,0,0
340612.5,76.3944,-495.126,0,0
341914.125,78.5627,-489.699,0,0
343215.75,81.1362,-486.386,0,0
344517.375,82.5605,-484.463,0,0
345819.0,82.6669,-482.84,0,0
347121,82.1789,-480.574,0,0
348422,81.4294,-477.91,0,0
349724,81.0337,-474.452,0,0
351025,81.9048,-471.103,0,0
352327,83.3539,-469.455,0,0
353629,83.3474,-469.047,0,0
354930,81.6358,-468.008,0,0
356232,79.7238,-465.669,0,0
357534,78.1736,-462.82,0,0
358835,76.9352,-459.302,0,0
360137,76.6434,-455.643,0,0
361438,76.788,-452.515,0,0
362740.1,76.8779,-449.532,0,0
364041.725,77.5624,-446.462,0,0
365343.35,79.1536,-444.591,0,0
366644.975,79.4648,-444.543,0,0
367946.6,77.4994,-444.071,0,0
369248.225,74.6415,-441.178,0,0
370549.85,74.3114,-436.341,0,0
371851.475,76.2019,-433.712,0,0
373153.1,76.5832,-433.265,0,0
374454.725,74.8684,-432.13,0,0
375756.35,73.0528,-429.347,0,0
377057.975,72.2697,-425.601,0,0
378359.6,72.6537,-422.193,0,0
379661,73.5362,-419.438,0,0
380963,74.339,-417.588,0,0
382264,74.7524,-416.123,0,0
383566,74.6474,-414.922,0,0
384868,73.8037,-413.618,0,0
386169,72.5316,-411.622,0,0
387471,71.3766,-409.025,0,0
388773,70.3025,-405.908,0,0
390074,69.8362,-402.031,0,0
391376,70.4306,-397.963,0,0
392677,72.1688,-394.247,0,0
393979,74.7191,-391.703,0,0
395280.7,77.2387,-390.372,0,0
396582.325,79.2515,-390.175,0,0
397883.95,80.2747,-390.712,0,0
399185.575,80.0048,-391.312,0,0
400006.6,79.3988,-391.329,0,0