File: Accelerated corrosion test data/2025-10-05_18-00-02/sample_2.csv
Frequency (Hz),Impedance (ohms),Phase (Radians),Temperature (C),Humidity (%)
10000.0,228.202,-11364.1,0,0
11301.625,202.826,-10065.1,0,0
12603.25,182.574,-9035.86,0,0
13904.875,184.28,-8192.67,0,0
15206.5,165.967,-7505.75,0,0
16508.125,142.386,-6917.38,0,0
17809.75,132.283,-6412.77,0,0
19111.375,128.132,-5975.66,0,0
20413.0,117.751,-5594.62,0,0
21714.625,127.155,-5265.91,0,0
23016.25,111.388,-4972.75,0,0
24317.875,102.59,-4708.67,0,0
25619.5,96.6794,-4466.66,0,0
26921.1,94.353,-4249.56,0,0
28222.7,89.7169,-4051,0,0
29524.4,92.1984,-3868.53,0,0
30826,87.5541,-3715.32,0,0
32127.6,81.7049,-3562.21,0,0
33429.2,79.2431,-3424.18,0,0
34730.9,75.3035,-3294.29,0,0
36032.5,72.9261,-3173.76,0,0
37334.1,70.4719,-3060.87,0,0
38635.7,68.7405,-2956.4,0,0
39937.4,66.7463,-2857.99,0,0
41239,65.2003,-2765.93,0,0
42540.6,64.1481,-2679.8,0,0
43842.225,62.6647,-2598.18,0,0
45143.85,61.5643,-2520.9,0,0
46445.475,60.9344,-2448.87,0,0
47747.1,60.515,-2380.08,0,0
49048.725,60.1144,-2316.19,0,0
50350.35,57.689,-2254.73,0,0
51651.975,56.3919,-2196,0,0
52953.6,54.9672,-2139.01,0,0
54255.225,54.1697,-2084.56,0,0
55556.85,53.662,-2032.9,0,0
56858.475,53.4983,-1983.33,0,0
58160.1,53.9784,-1936.42,0,0
59461.7,54.3451,-1890.69,0,0
60763.3,56.014,-1848.59,0,0
62065,58.7606,-1810.27,0,0
63366.6,55.6673,-1774,0,0
64668.2,52.5329,-1735.76,0,0
65969.8,50.487,-1697.16,0,0
67271.5,51.1501,-1659.66,0,0
68573.1,53.1938,-1626.25,0,0
69874.7,55.6677,-1595.84,0,0
71176.3,52.3791,-1567.78,0,0
72478,47.635,-1537.36,0,0
73779.6,45.0434,-1504.86,0,0
75081.2,45.1071,-1472.74,0,0
76382.825,46.8734,-1442.58,0,0
77684.45,49.5174,-1414.55,0,0
78986.075,52.8337,-1390.26,0,0
80287.7,51.7436,-1368.98,0,0
81589.325,49.0776,-1344.03,0,0
82890.95,47.891,-1318.55,0,0
84192.575,48.6959,-1293.79,0,0
85494.2,49.4541,-1270.53,0,0
86795.825,50.3481,-1248.65,0,0
88097.45,50.882,-1227.56,0,0
89399.075,51.1051,-1206.04,0,0
90700.7,51.4182,-1185.91,0,0
92002.3,52.9079,-1164.97,0,0
93303.9,55.6941,-1146.31,0,0
94605.6,54.9726,-1129.9,0,0
95907.2,54.5402,-1110.62,0,0
97208.8,57.5473,-1093.86,0,0
98510.4,57.5262,-1080.17,0,0
99812.1,53.146,-1065.81,0,0
101114,50.1368,-1047.41,0,0
102415,46.9892,-1027.46,0,0
103717,46.043,-1006.92,0,0
105019,49.6404,-986.535,0,0
106320.175,54.4067,-969.894,0,0
107621.8,57.4502,-957.713,0,0
108923.425,56.0891,-945.901,0,0
110225.05,52.8979,-930.456,0,0
111526.675,51.8466,-912.913,0,0
112828.3,52.3322,-895.677,0,0
114129.925,54.0214,-878.595,0,0
115431.55,56.7827,-862.475,0,0
116733.175,60.1687,-847.214,0,0
118034.8,64.003,-833.582,0,0
119336.425,67.5947,-821.446,0,0
120638.05,69.7834,-811.251,0,0
121939.675,68.9752,-800.057,0,0
123241,68.2293,-787.181,0,0
124543,67.766,-773.696,0,0
125845,67.6593,-759.006,0,0
127146,68.9453,-743.871,0,0
128448,71.712,-729.466,0,0
129749,74.4817,-716.307,0,0
131051,76.8441,-703.533,0,0
132353,78.4455,-691.109,0,0
133654,79.6135,-677.484,0,0
134956,81.1544,-663.254,0,0
136258,83.5466,-648.569,0,0
137559,86.5947,-633.634,0,0
138860.775,89.4353,-618.892,0,0
140162.4,92.4712,-602.488,0,0
141464.025,98.0191,-583.793,0,0
142765.65,107.304,-565.771,0,0
144067.275,118.345,-550.554,0,0
145368.9,129.661,-535.538,0,0
146670.525,142.55,-521.375,0,0
147972.15,158.585,-507.107,0,0
149273.775,179.422,-494.453,0,0
150575.4,206.777,-491.947,0,0
151877.025,228.75,-503.129,0,0
153178.65,236.535,-519.41,0,0
154480,234.152,-529.19,0,0
155782,229.203,-531.91,0,0
157084,224.793,-530.448,0,0
158385,221.627,-524.545,0,0
159687,220.251,-518.03,0,0
160988,222.447,-510.845,0,0
162290,230.013,-507.168,0,0
163592,226.959,-514.75,0,0
164893,212.989,-512.81,0,0
166195,198.822,-499.668,0,0
167497,191.549,-479.533,0,0
168798,188.744,-457.145,0,0
170100,190.865,-435.626,0,0
171401.375,194.805,-412.571,0,0
172703.0,203.729,-388.138,0,0
174004.625,216.803,-363.848,0,0
175306.25,236.94,-339.96,0,0
176607.875,261.837,-322.546,0,0
177909.5,291.655,-312.554,0,0
179211.125,311.231,-313.91,0,0
180512.75,320.718,-313.382,0,0
181814.375,325.31,-297.456,0,0
183116.0,341.737,-274.226,0,0
184417.625,367.977,-250.462,0,0
185719.25,405.134,-231.316,0,0
187021,445.403,-223.254,0,0
188322,488.478,-217.585,0,0
189624,528.456,-217.1,0,0
190926,573.571,-214.578,0,0
192227,633.925,-217.335,0,0
193529,704.059,-240.661,0,0
194831,763.715,-287.957,0,0
196132,813.315,-348.35,0,0
197434,850.096,-414.959,0,0
198735,874.222,-490.658,0,0
200037,878.229,-571.704,0,0
201339,869.334,-655.552,0,0
202640.35,832.849,-734.813,0,0
203941.975,778.077,-788.658,0,0
205243.6,727.607,-826.367,0,0
206545.225,670.296,-851.729,0,0
207846.85,623.065,-861.064,0,0
209148.475,586.458,-866.6,0,0
210450.1,548.952,-878.224,0,0
211751.725,504.892,-879.816,0,0
213053.35,468.229,-870.351,0,0
214354.975,438.166,-856.583,0,0
215656.6,415.68,-843.066,0,0
216958.225,396.805,-828.655,0,0
218259.85,383.248,-814.14,0,0
219561,373.837,-801.425,0,0
220863,367.071,-791.609,0,0
222165,363.288,-781.881,0,0
223466,363.221,-777.705,0,0
224768,360.669,-778.051,0,0
226070,356.099,-778.732,0,0
227371,353.402,-780.448,0,0
228673,350.069,-786.952,0,0
229974,341.154,-797.302,0,0
231276,326.116,-805.41,0,0
232578,308.419,-809.488,0,0
233879,289.978,-809.896,0,0
235180.95,272.603,-807.91,0,0
236482.575,254.93,-804.23,0,0
237784.2,237.553,-798.055,0,0
239085.825,222.02,-788.936,0,0
240387.45,208.717,-778.891,0,0
241689.075,197.538,-768.534,0,0
242990.7,188.207,-758.46,0,0
244292.325,179.902,-749.92,0,0
245593.95,171.166,-742.255,0,0
246895.575,160.026,-735.444,0,0
248197.2,147.206,-724.131,0,0
249498.825,136.8,-710.089,0,0
250800,128.782,-694.286,0,0
252102,124.05,-677.859,0,0
253404,121.909,-661.704,0,0
254705,121.543,-646.618,0,0
256007,123.128,-631.264,0,0
257309,127.839,-617.41,0,0
258610,133.87,-605.975,0,0
259912,140.861,-595.853,0,0
261213,149.738,-587.948,0,0
262515,158.996,-583.808,0,0
263817,167.24,-582.12,0,0
265118,173.627,-583.817,0,0
266420,175.61,-585.505,0,0
267721.55,177.249,-585.503,0,0
269023.175,176.993,-585.439,0,0
270324.8,176.352,-581.586,0,0
271626.425,180.02,-575.625,0,0
272928.05,187.399,-571.978,0,0
274229.675,199.259,-571.57,0,0
275531.3,212.232,-580.959,0,0
276832.925,216.844,-599.294,0,0
278134.55,209.481,-615.735,0,0
279436.175,197.579,-625.817,0,0
280737.8,184.897,-631.157,0,0
282039.425,171.651,-634.221,0,0
283341,156.311,-633.266,0,0
284643,144.708,-627.235,0,0
285944,132.908,-622.551,0,0
287246,119.759,-611.867,0,0
288548,112.173,-594.52,0,0
289849,115.165,-575.233,0,0
291151,128.057,-563.95,0,0
292452,141.68,-564.614,0,0
293754,146.552,-573.388,0,0
295056,142.996,-576.733,0,0
296357,146.073,-577.797,0,0
297659,144.004,-587.429,0,0
298960.525,134.878,-591.911,0,0
300262.15,125.923,-592.436,0,0
301563.775,117.831,-589.511,0,0
302865.4,113.608,-585.776,0,0
304167.025,109.786,-585.755,0,0
305468.65,102.338,-585.97,0,0
306770.275,93.3523,-582.885,0,0
308071.9,85.8661,-577.289,0,0
309373.525,79.9095,-571.182,0,0
310675.15,74.8861,-564.775,0,0
311976.775,70.7416,-557.933,0,0
313278.4,67.817,-551.312,0,0
314580,65.3209,-545.215,0,0
315882,62.9951,-538.98,0,0
317183,61.2749,-532.84,0,0
318485,60.3302,-526.967,0,0
319787,59.4289,-521.753,0,0
321088,58.3622,-516.595,0,0
322390,57.3306,-511.45,0,0
323691,56.25,-505.894,0,0
324993,55.9912,-499.338,0,0
326295,58.0743,-492.981,0,0
327596,61.2517,-489.211,0,0
328898,63.1663,-487.005,0,0
330200,64.6096,-485.265,0,0
331501.125,65.1986,-484.307,0,0
332802.75,64.3488,-483.799,0,0
334104.375,62.0717,-482.273,0,0
335406.0,59.715,-479.461,0,0
336707.625,57.7785,-476.002,0,0
338009.25,56.1215,-472.107,0,0
339310.875,54.9588,-467.846,0,0
340612.5,54.3273,-463.499,0,0
341914.125,54.0891,-459.217,0,0
343215.75,54.1404,-454.963,0,0
344517.375,54.668,-450.751,0,0
345819.0,55.6122,-446.838,0,0
347121,56.8752,-443.211,0,0
348422,58.1922,-439.986,0,0
349724,59.8191,-437.062,0,0
351025,61.5707,-434.775,0,0
352327,62.9003,-432.931,0,0
353629,63.9618,-431.033,0,0
354930,65.117,-429.243,0,0
356232,66.2478,-427.583,0,0
357534,67.4871,-426.009,0,0
358835,69.0782,-424.938,0,0
360137,70.4311,-424.923,0,0
361438,70.7124,-425.245,0,0
362740.1,70.4749,-425.352,0,0
364041.725,69.6236,-425.306,0,0
365343.35,68.2495,-424.801,0,0
366644.975,66.745,-423.628,0,0
367946.6,65.8729,-421.776,0,0
369248.225,65.6785,-420.462,0,0
370549.85,65.0854,-419.936,0,0
371851.475,63.7395,-419.024,0,0
373153.1,62.5581,-417.786,0,0
374454.725,61.2697,-416.646,0,0
375756.35,59.7377,-415.366,0,0
377057.975,58.3049,-413.781,0,0
378359.6,56.8698,-412.688,0,0
379661,54.0959,-411.282,0,0
380963,51.7506,-407.557,0,0
382264,51.6154,-404.663,0,0
383566,50.6607,-403.109,0,0
384868,48.87,-401.045,0,0
386169,47.2157,-398.342,0,0
387471,45.5964,-395.161,0,0
388773,44.6132,-391.593,0,0
390074,44.46,-388.141,0,0
391376,44.8071,-385.473,0,0
392677,44.3761,-383.837,0,0
393979,42.7583,-381.491,0,0
395280.7,41.3279,-378.025,0,0
396582.325,40.6775,-374.107,0,0
397883.95,40.6466,-370.199,0,0
399185.575,41.1647,-366.663,0,0
400006.6,41.5561,-364.561,0,0