File: Accelerated corrosion test data/2025-10-05_18-00-02/sample_1.csv
Frequency (Hz),Impedance (ohms),Phase (Radians),Temperature (C),Humidity (%)
10000.0,237.646,-12209.3,0,0
11301.625,211.918,-10814.1,0,0
12603.25,192.779,-9713.49,0,0
13904.875,180.214,-8789.07,0,0
15206.5,181.569,-8058.69,0,0
16508.125,153.906,-7431.29,0,0
17809.75,146.174,-6896.83,0,0
19111.375,134.667,-6426.61,0,0
20413.0,154.545,-5984.92,0,0
21714.625,137.667,-5671.18,0,0
23016.25,121.751,-5362.88,0,0
24317.875,111.847,-5071.01,0,0
25619.5,104.197,-4806.65,0,0
26921.1,112.957,-4558.86,0,0
28222.7,109.347,-4353.84,0,0
29524.4,106.598,-4187.3,0,0
30826,100.362,-4000.86,0,0
32127.6,97.7338,-3841.73,0,0
33429.2,88.6151,-3698.1,0,0
34730.9,81.7609,-3556.56,0,0
36032.5,77.561,-3425.55,0,0
37334.1,74.9667,-3303.07,0,0
38635.7,72.6114,-3189.41,0,0
39937.4,70.5824,-3082.79,0,0
41239,71.8362,-2983.47,0,0
42540.6,70.2766,-2891.55,0,0
43842.225,67.5697,-2804.45,0,0
45143.85,68.3743,-2722.97,0,0
46445.475,65.2481,-2646.89,0,0
47747.1,63.6785,-2573.01,0,0
49048.725,61.2286,-2502.59,0,0
50350.35,59.5747,-2436.1,0,0
51651.975,58.5361,-2372.5,0,0
52953.6,57.4899,-2311.61,0,0
54255.225,56.7501,-2254.49,0,0
55556.85,55.9125,-2199.07,0,0
56858.475,54.7809,-2146.15,0,0
58160.1,54.583,-2095.39,0,0
59461.7,54.3296,-2047.4,0,0
60763.3,54.4706,-2001.4,0,0
62065,53.0993,-1957.52,0,0
63366.6,52.3126,-1913.82,0,0
64668.2,52.9827,-1871.91,0,0
65969.8,55.1454,-1833.89,0,0
67271.5,53.6278,-1797.36,0,0
68573.1,53.3105,-1761.91,0,0
69874.7,52.135,-1727.89,0,0
71176.3,50.5329,-1693.22,0,0
72478,48.5809,-1659.63,0,0
73779.6,48.1704,-1626.13,0,0
75081.2,48.5164,-1593.92,0,0
76382.825,49.3683,-1562.73,0,0
77684.45,50.2342,-1533.39,0,0
78986.075,51.9246,-1505.69,0,0
80287.7,51.1796,-1479.31,0,0
81589.325,50.9665,-1451.38,0,0
82890.95,51.3732,-1424.52,0,0
84192.575,53.0248,-1398.3,0,0
85494.2,55.241,-1373.91,0,0
86795.825,56.2513,-1350.57,0,0
88097.45,56.6804,-1327.49,0,0
89399.075,58.0215,-1302.91,0,0
90700.7,61.8837,-1279.42,0,0
92002.3,68.3617,-1258.37,0,0
93303.9,75.4748,-1241.78,0,0
94605.6,73.6417,-1234.3,0,0
95907.2,67.1342,-1215.89,0,0
97208.8,64.5475,-1195.11,0,0
98510.4,64.2939,-1174.84,0,0
99812.1,63.3408,-1154.37,0,0
101114,63.8206,-1134.73,0,0
102415,63.2866,-1112.95,0,0
103717,68.3167,-1091.7,0,0
105019,75.2047,-1074,0,0
106320.175,81.9122,-1058.13,0,0
107621.8,88.5996,-1045.94,0,0
108923.425,93.2487,-1035.44,0,0
110225.05,94.1882,-1027.12,0,0
111526.675,94.5655,-1015.03,0,0
112828.3,96.223,-1005.38,0,0
114129.925,95.0581,-997.634,0,0
115431.55,90.8588,-987.5,0,0
116733.175,85.8303,-974.626,0,0
118034.8,82.2015,-959.568,0,0
119336.425,81.0229,-943.863,0,0
120638.05,81.9651,-929.885,0,0
121939.675,80.9843,-917.345,0,0
123241,79.3685,-903.106,0,0
124543,79.1978,-887.992,0,0
125845,79.9674,-873.227,0,0
127146,81.2237,-859.015,0,0
128448,83.2281,-844.226,0,0
129749,86.2029,-829.855,0,0
131051,91.4765,-817.166,0,0
132353,95.4926,-806.792,0,0
133654,98.5682,-796.734,0,0
134956,100.577,-786.401,0,0
136258,103.667,-775.363,0,0
137559,107.96,-765.491,0,0
138860.775,110.187,-759.465,0,0
140162.4,109.809,-750.988,0,0
141464.025,109.735,-740.467,0,0
142765.65,110.708,-729.446,0,0
144067.275,111.837,-718.716,0,0
145368.9,113.948,-707.45,0,0
146670.525,116.729,-696.45,0,0
147972.15,119.226,-686.832,0,0
149273.775,121.355,-677.456,0,0
150575.4,122.65,-668.237,0,0
151877.025,121.695,-656.478,0,0
153178.65,122.419,-641.345,0,0
154480,126.359,-625.203,0,0
155782,134.199,-608.478,0,0
157084,146.328,-593.712,0,0
158385,158.727,-584.317,0,0
159687,169.77,-573.634,0,0
160988,187.479,-563.885,0,0
162290,204.782,-563.551,0,0
163592,218.678,-564.791,0,0
164893,230.686,-567.807,0,0
166195,243.738,-576.142,0,0
167497,247.569,-589.238,0,0
168798,243.776,-599.17,0,0
170100,235.711,-603.42,0,0
171401.375,228.445,-601.816,0,0
172703.0,222.188,-598.15,0,0
174004.625,218.481,-590.865,0,0
175306.25,219.154,-584.464,0,0
176607.875,218.926,-582.428,0,0
177909.5,216.613,-579.332,0,0
179211.125,213.356,-576.14,0,0
180512.75,207.507,-573.411,0,0
181814.375,199.814,-564.369,0,0
183116.0,193.149,-554.356,0,0
184417.625,188.438,-539.007,0,0
185719.25,188.052,-523.354,0,0
187021,189.649,-508.832,0,0
188322,191.685,-494.115,0,0
189624,195.377,-477.629,0,0
190926,201.664,-462.151,0,0
192227,208.521,-446.085,0,0
193529,216.747,-430.052,0,0
194831,226.87,-412.876,0,0
196132,239.834,-394.788,0,0
197434,257.195,-376.135,0,0
198735,278.466,-360.931,0,0
200037,299.702,-345.976,0,0
201339,327.4,-328.402,0,0
202640.35,364.962,-315.774,0,0
203941.975,408.763,-311.36,0,0
205243.6,460.557,-321.945,0,0
206545.225,502.52,-352.287,0,0
207846.85,528.958,-391.688,0,0
209148.475,541.323,-430.958,0,0
210450.1,537.709,-462.962,0,0
211751.725,529.546,-480.705,0,0
213053.35,530.735,-484.422,0,0
214354.975,540.631,-494.218,0,0
215656.6,552.428,-507.519,0,0
216958.225,561.057,-519.806,0,0
218259.85,579.277,-534.89,0,0
219561,596.146,-554.802,0,0
220863,616.51,-582.408,0,0
222165,633.478,-623.738,0,0
223466,637.924,-672.971,0,0
224768,629.352,-724.441,0,0
226070,608.011,-775.585,0,0
227371,571.942,-819.863,0,0
228673,524.611,-850.895,0,0
229974,477.029,-865.677,0,0
231276,432.798,-868.803,0,0
232578,397.408,-863.766,0,0
233879,367.965,-859.014,0,0
235180.95,341.546,-852.432,0,0
236482.575,317.296,-845.673,0,0
237784.2,295.658,-838.032,0,0
239085.825,273.978,-830.293,0,0
240387.45,252.931,-818.729,0,0
241689.075,236.36,-805.825,0,0
242990.7,221.977,-793.154,0,0
244292.325,209.994,-781.438,0,0
245593.95,198.01,-770.117,0,0
246895.575,186.639,-758.27,0,0
248197.2,176.852,-745.42,0,0
249498.825,168.882,-732.764,0,0
250800,161.909,-720.668,0,0
252102,155.455,-708.52,0,0
253404,150.026,-695.901,0,0
254705,146.044,-682.74,0,0
256007,144.168,-670.283,0,0
257309,142.905,-658.529,0,0
258610,143.021,-646.572,0,0
259912,145.438,-635.39,0,0
261213,149.476,-626.092,0,0
262515,154.32,-618.965,0,0
263817,159.98,-613.216,0,0
265118,166.785,-610.811,0,0
266420,172.529,-612.951,0,0
267721.55,173.642,-619.226,0,0
269023.175,167.324,-624.644,0,0
270324.8,157.207,-624.058,0,0
271626.425,148.69,-618.054,0,0
272928.05,143.513,-609.511,0,0
274229.675,141.697,-600.997,0,0
275531.3,141.638,-593.717,0,0
276832.925,142.796,-587.174,0,0
278134.55,145.395,-582.811,0,0
279436.175,147.63,-580.763,0,0
280737.8,147.721,-580.472,0,0
282039.425,145.805,-579.6,0,0
283341,142.965,-577.888,0,0
284643,139.681,-575.065,0,0
285944,135.877,-571.333,0,0
287246,131.664,-566.048,0,0
288548,129.146,-557.54,0,0
289849,131.464,-549.391,0,0
291151,134.617,-545.775,0,0
292452,134.915,-543.216,0,0
293754,133.689,-538.627,0,0
295056,134.119,-531.865,0,0
296357,137.513,-524.835,0,0
297659,142.716,-520.332,0,0
298960.525,148.213,-517.103,0,0
300262.15,153.675,-515.684,0,0
301563.775,159.074,-514.397,0,0
302865.4,166.12,-515.452,0,0
304167.025,171.698,-519.257,0,0
305468.65,175.07,-523.99,0,0
306770.275,178.361,-529.273,0,0
308071.9,179.447,-536.456,0,0
309373.525,177.942,-543.565,0,0
310675.15,175.123,-550.151,0,0
311976.775,170.132,-556.888,0,0
313278.4,162.84,-561.694,0,0
314580,155.189,-564.287,0,0
315882,147.742,-565.622,0,0
317183,139.508,-566.232,0,0
318485,131.413,-564.779,0,0
319787,123.897,-562.402,0,0
321088,116.746,-558.718,0,0
322390,110.585,-554.063,0,0
323691,105.646,-548.345,0,0
324993,102.584,-542.528,0,0
326295,100.944,-537.607,0,0
327596,99.838,-533.783,0,0
328898,98.7718,-531.001,0,0
330200,97.4402,-529.094,0,0
331501.125,95.1996,-527.591,0,0
332802.75,92.1655,-526.201,0,0
334104.375,88.4354,-524.149,0,0
335406.0,84.5514,-521.39,0,0
336707.625,80.8135,-517.937,0,0
338009.25,77.3885,-514.146,0,0
339310.875,74.3192,-510.052,0,0
340612.5,71.6389,-505.675,0,0
341914.125,69.5636,-501.434,0,0
343215.75,67.4742,-497.414,0,0
344517.375,65.3511,-493.368,0,0
345819.0,63.1813,-489.004,0,0
347121,61.4706,-484.395,0,0
348422,60.0571,-479.729,0,0
349724,59.0127,-474.963,0,0
351025,58.453,-470.397,0,0
352327,58.137,-466.162,0,0
353629,57.6554,-462.025,0,0
354930,57.323,-457.877,0,0
356232,57.4011,-453.741,0,0
357534,57.7422,-449.864,0,0
358835,57.917,-446.318,0,0
360137,58.1362,-442.684,0,0
361438,58.4967,-439.268,0,0
362740.1,58.7685,-436.008,0,0
364041.725,59.0037,-432.621,0,0
365343.35,59.3103,-429.15,0,0
366644.975,59.7161,-425.673,0,0
367946.6,60.0031,-421.895,0,0
369248.225,60.8331,-417.353,0,0
370549.85,63.1772,-412.901,0,0
371851.475,66.3747,-409.574,0,0
373153.1,69.8231,-407.373,0,0
374454.725,73.0503,-406.362,0,0
375756.35,75.4554,-406.088,0,0
377057.975,77.1954,-405.729,0,0
378359.6,78.9847,-405.588,0,0
379661,80.2863,-405.798,0,0
380963,81.6915,-406.135,0,0
382264,82.9483,-407.531,0,0
383566,82.6326,-409.807,0,0
384868,80.541,-411.446,0,0
386169,77.8849,-411.803,0,0
387471,74.8191,-411.354,0,0
388773,72.0513,-409.487,0,0
390074,70.2973,-407.232,0,0
391376,69.1719,-405.412,0,0
392677,67.735,-404.086,0,0
393979,65.5996,-402.538,0,0
395280.7,63.2381,-400.269,0,0
396582.325,61.1791,-397.228,0,0
397883.95,59.6467,-393.83,0,0
399185.575,58.4789,-390.295,0,0
400006.6,57.9547,-387.983,0,0