File: Accelerated corrosion test data/2025-10-10_18-00-03/sample_7.csv
Frequency (Hz),Impedance (ohms),Phase (Radians),Temperature (C),Humidity (%)
10000.0,273.941,-12077.1,0,0
11301.625,247.386,-10684.7,0,0
12603.25,257.08,-9628.59,0,0
13904.875,210.953,-8740.06,0,0
15206.5,194.859,-8005.4,0,0
16508.125,171.896,-7365.02,0,0
17809.75,171.752,-6810.13,0,0
19111.375,181.359,-6368.01,0,0
20413.0,167.985,-5976.56,0,0
21714.625,155.581,-5634.83,0,0
23016.25,130.666,-5311.91,0,0
24317.875,123.403,-5019.18,0,0
25619.5,118.732,-4755.45,0,0
26921.1,123.902,-4510.72,0,0
28222.7,181.154,-4308.94,0,0
29524.4,136.775,-4164.57,0,0
30826,134.066,-3982.94,0,0
32127.6,117.783,-3837.72,0,0
33429.2,101.868,-3686.41,0,0
34730.9,92.8209,-3542.17,0,0
36032.5,88.9077,-3408.48,0,0
37334.1,86.5783,-3285.05,0,0
38635.7,87.1098,-3168.07,0,0
39937.4,97.6323,-3068.27,0,0
41239,87.0348,-2980.57,0,0
42540.6,80.6689,-2884.68,0,0
43842.225,79.6441,-2796.22,0,0
45143.85,80.9777,-2718.53,0,0
46445.475,77.767,-2646.18,0,0
47747.1,71.2428,-2570.27,0,0
49048.725,68.3212,-2499.82,0,0
50350.35,66.5352,-2432.86,0,0
51651.975,64.6937,-2369.37,0,0
52953.6,63.9817,-2308.84,0,0
54255.225,62.7115,-2252.06,0,0
55556.85,61.5062,-2197.32,0,0
56858.475,60.6327,-2145.17,0,0
58160.1,59.9956,-2094.72,0,0
59461.7,60.2577,-2047.4,0,0
60763.3,59.5987,-2003.56,0,0
62065,57.5547,-1960.39,0,0
63366.6,56.3689,-1917.51,0,0
64668.2,55.4027,-1876.95,0,0
65969.8,55.4752,-1838.6,0,0
67271.5,53.7171,-1801.75,0,0
68573.1,52.6248,-1765.09,0,0
69874.7,52.1689,-1729.72,0,0
71176.3,51.9308,-1696.34,0,0
72478,50.6791,-1664.02,0,0
73779.6,49.9332,-1632.23,0,0
75081.2,49.3996,-1601.49,0,0
76382.825,48.8834,-1571.7,0,0
77684.45,48.6151,-1542.81,0,0
78986.075,48.3105,-1514.92,0,0
80287.7,48.1031,-1487.89,0,0
81589.325,47.7815,-1461.58,0,0
82890.95,47.5685,-1435.99,0,0
84192.575,47.6427,-1410.8,0,0
85494.2,47.7697,-1386.78,0,0
86795.825,47.8071,-1363.34,0,0
88097.45,47.9919,-1340.66,0,0
89399.075,47.7704,-1318.29,0,0
90700.7,48.0897,-1296.2,0,0
92002.3,48.5884,-1274.68,0,0
93303.9,49.1141,-1253.82,0,0
94605.6,50.6624,-1234.06,0,0
95907.2,50.5538,-1215.81,0,0
97208.8,50.1009,-1196.37,0,0
98510.4,50.9911,-1177.04,0,0
99812.1,50.5506,-1158.17,0,0
101114,52.1073,-1139.33,0,0
102415,53.805,-1121.17,0,0
103717,56.5265,-1104.66,0,0
105019,57.4337,-1089.46,0,0
106320.175,57.0714,-1073.21,0,0
107621.8,58.1648,-1057.08,0,0
108923.425,59.209,-1041,0,0
110225.05,59.6612,-1024.37,0,0
111526.675,62.7763,-1007.62,0,0
112828.3,67.0254,-991.641,0,0
114129.925,72.0436,-977.783,0,0
115431.55,77.72,-964.885,0,0
116733.175,85.3349,-956.28,0,0
118034.8,88.5052,-950.304,0,0
119336.425,91.0694,-947.434,0,0
120638.05,84.952,-946.146,0,0
121939.675,75.4829,-935.8,0,0
123241,68.4887,-923.056,0,0
124543,64.3159,-908.361,0,0
125845,60.4356,-894.709,0,0
127146,57.3706,-879.717,0,0
128448,55.8294,-865.067,0,0
129749,54.4797,-850.614,0,0
131051,53.3885,-836.169,0,0
132353,52.8093,-820.882,0,0
133654,53.3818,-805.313,0,0
134956,56.2928,-790.482,0,0
136258,61.5833,-777.5,0,0
137559,62.3568,-769.737,0,0
138860.775,60.4859,-757.908,0,0
140162.4,61.0107,-744.496,0,0
141464.025,60.9999,-731.359,0,0
142765.65,62.2925,-717.351,0,0
144067.275,64.8206,-704.525,0,0
145368.9,66.2253,-691.965,0,0
146670.525,67.3408,-678.784,0,0
147972.15,69.1221,-665.563,0,0
149273.775,69.6543,-652.446,0,0
150575.4,70.612,-636.562,0,0
151877.025,73.3473,-619.209,0,0
153178.65,78.4507,-601.429,0,0
154480,85.2947,-583.53,0,0
155782,94.9404,-566.248,0,0
157084,106.742,-550.781,0,0
158385,119.827,-538.955,0,0
159687,127.947,-530.57,0,0
160988,131.023,-515.334,0,0
162290,141.706,-491.296,0,0
163592,161.388,-467.811,0,0
164893,187.794,-449.928,0,0
166195,217.604,-430.891,0,0
167497,263.414,-419.006,0,0
168798,318.627,-426.053,0,0
170100,365.232,-456.953,0,0
171401.375,397.867,-504.629,0,0
172703.0,409.96,-565.644,0,0
174004.625,381.557,-620.084,0,0
175306.25,339.381,-633.868,0,0
176607.875,320.402,-623.42,0,0
177909.5,331.404,-625.583,0,0
179211.125,327.949,-663.412,0,0
180512.75,297.822,-684.27,0,0
181814.375,257.172,-698.639,0,0
183116.0,214.855,-686.77,0,0
184417.625,186.465,-664.396,0,0
185719.25,168.11,-641.603,0,0
187021,154.838,-614.498,0,0
188322,152.149,-590.076,0,0
189624,146.27,-573.188,0,0
190926,139.902,-550.667,0,0
192227,139.536,-525.888,0,0
193529,142.372,-500.854,0,0
194831,149.304,-476.292,0,0
196132,161.063,-454.884,0,0
197434,173.775,-435.97,0,0
198735,185.616,-418.199,0,0
200037,199.182,-398.061,0,0
201339,217.618,-377.209,0,0
202640.35,243.274,-357.038,0,0
203941.975,274.162,-341.605,0,0
205243.6,310.72,-332.149,0,0
206545.225,351.229,-336.33,0,0
207846.85,378.2,-346.713,0,0
209148.475,411.753,-345.647,0,0
210450.1,463.693,-363.391,0,0
211751.725,498.774,-410.855,0,0
213053.35,511.118,-460.362,0,0
214354.975,507.443,-502.676,0,0
215656.6,495.202,-535.147,0,0
216958.225,485.26,-566.403,0,0
218259.85,460.694,-592.179,0,0
219561,429.796,-606.608,0,0
220863,401.373,-602.223,0,0
222165,386.962,-588.377,0,0
223466,384.927,-576.576,0,0
224768,387.58,-568.746,0,0
226070,399.906,-560.531,0,0
227371,417.827,-566.005,0,0
228673,436.013,-582.88,0,0
229974,444.717,-610.102,0,0
231276,442.336,-644.469,0,0
232578,428.54,-675.487,0,0
233879,400.499,-706.67,0,0
235180.95,356.943,-719.761,0,0
236482.575,322.417,-711.175,0,0
237784.2,295.306,-702.665,0,0
239085.825,271.442,-681.442,0,0
240387.45,269.211,-662.043,0,0
241689.075,262.806,-657.668,0,0
242990.7,249.295,-646.895,0,0
244292.325,242.439,-627.624,0,0
245593.95,249.101,-613.462,0,0
246895.575,252.929,-609.023,0,0
248197.2,254.063,-603.804,0,0
249498.825,256.763,-598.728,0,0
250800,260.645,-596.405,0,0
252102,265.118,-596.599,0,0
253404,267.546,-601.493,0,0
254705,263.826,-608.44,0,0
256007,255.557,-611.475,0,0
257309,245.728,-610.108,0,0
258610,237.69,-603.386,0,0
259912,233.142,-596.032,0,0
261213,230.74,-585.291,0,0
262515,236.128,-573.982,0,0
263817,247.89,-570.625,0,0
265118,255.707,-575.623,0,0
266420,258.947,-579.81,0,0
267721.55,262.751,-586.601,0,0
269023.175,261.749,-594.21,0,0
270324.8,262.107,-598.416,0,0
271626.425,266.564,-606.961,0,0
272928.05,269.447,-629.794,0,0
274229.675,249.751,-657.898,0,0
275531.3,213.496,-670.216,0,0
276832.925,177.38,-661.735,0,0
278134.55,151.934,-639.734,0,0
279436.175,140.75,-615.894,0,0
280737.8,137.734,-595.549,0,0
282039.425,137.406,-582.547,0,0
283341,133.92,-569.09,0,0
284643,134.723,-553.173,0,0
285944,139.866,-540.208,0,0
287246,145.896,-531.735,0,0
288548,149.143,-524.638,0,0
289849,152.95,-515.71,0,0
291151,159.575,-506.828,0,0
292452,167.556,-500.849,0,0
293754,175.524,-495.948,0,0
295056,184.167,-491.394,0,0
296357,195.169,-487.94,0,0
297659,208.747,-487.592,0,0
298960.525,222.187,-491.723,0,0
300262.15,235.858,-498.829,0,0
301563.775,250.599,-511.345,0,0
302865.4,262.249,-535.51,0,0
304167.025,257.246,-564.709,0,0
305468.65,241.558,-586.012,0,0
306770.275,220.838,-599.476,0,0
308071.9,199.593,-604.313,0,0
309373.525,180.098,-603.268,0,0
310675.15,164.659,-597.68,0,0
311976.775,152.927,-591.486,0,0
313278.4,142.847,-584.955,0,0
314580,133.951,-577.43,0,0
315882,127.755,-568.8,0,0
317183,123.956,-561.413,0,0
318485,120.717,-555.137,0,0
319787,118.362,-549.086,0,0
321088,116.902,-544.41,0,0
322390,115.15,-540.971,0,0
323691,112.498,-537.982,0,0
324993,109.572,-534.274,0,0
326295,107.471,-530.749,0,0
327596,105.16,-528.034,0,0
328898,102.222,-525.424,0,0
330200,99.0429,-522.613,0,0
331501.125,95.7513,-519.922,0,0
332802.75,91.6945,-517.213,0,0
334104.375,86.872,-513.571,0,0
335406.0,82.1701,-508.816,0,0
336707.625,77.8549,-503.198,0,0
338009.25,74.4479,-496.784,0,0
339310.875,71.9131,-490.254,0,0
340612.5,70.0841,-483.725,0,0
341914.125,68.8297,-477.118,0,0
343215.75,68.4951,-470.569,0,0
344517.375,68.9617,-464.575,0,0
345819.0,69.8438,-459.457,0,0
347121,70.5365,-455.255,0,0
348422,70.5117,-451.412,0,0
349724,69.9558,-446.909,0,0
351025,69.5895,-441.893,0,0
352327,70.2641,-436.314,0,0
353629,71.9676,-431.385,0,0
354930,73.9581,-427.387,0,0
356232,75.9261,-424.763,0,0
357534,76.1513,-422.51,0,0
358835,75.5168,-419.1,0,0
360137,75.4283,-414.401,0,0
361438,76.6724,-409.315,0,0
362740.1,78.8632,-404.972,0,0
364041.725,81.1974,-401.173,0,0
365343.35,84.169,-397.951,0,0
366644.975,86.9271,-395.929,0,0
367946.6,89.1092,-394.153,0,0
369248.225,91.1654,-392.974,0,0
370549.85,92.2163,-392.835,0,0
371851.475,91.0027,-391.683,0,0
373153.1,90.1637,-388.292,0,0
374454.725,90.7065,-384.315,0,0
375756.35,92.1051,-380.599,0,0
377057.975,93.5639,-377.465,0,0
378359.6,95.1974,-373.81,0,0
379661,97.7052,-370.394,0,0
380963,100.417,-367.694,0,0
382264,102.915,-365.01,0,0
383566,106.007,-362.393,0,0
384868,109.293,-360.467,0,0
386169,112.136,-358.731,0,0
387471,115.087,-356.904,0,0
388773,118.167,-354.588,0,0
390074,122.849,-352.62,0,0
391376,127.381,-352.177,0,0
392677,131.521,-351.772,0,0
393979,135.856,-351.488,0,0
395280.7,140.958,-351.168,0,0
396582.325,147.621,-351.873,0,0
397883.95,155.107,-355.46,0,0
399185.575,161.39,-362.279,0,0
400006.6,163.781,-368.133,0,0