File: Accelerated corrosion test data/2025-10-10_18-00-03/sample_1.csv
Frequency (Hz),Impedance (ohms),Phase (Radians),Temperature (C),Humidity (%)
10000.0,239.434,-12182.3,0,0
11301.625,213.306,-10790.2,0,0
12603.25,193.985,-9691.93,0,0
13904.875,180.595,-8770.78,0,0
15206.5,182.164,-8039.11,0,0
16508.125,154.676,-7415.14,0,0
17809.75,145.328,-6881.59,0,0
19111.375,135.02,-6412.93,0,0
20413.0,154.411,-5971.25,0,0
21714.625,137.63,-5655.49,0,0
23016.25,122.306,-5351.59,0,0
24317.875,112.208,-5059.95,0,0
25619.5,104.392,-4796.51,0,0
26921.1,113.654,-4547.95,0,0
28222.7,110.16,-4344.47,0,0
29524.4,106.969,-4178.35,0,0
30826,100.229,-3992.09,0,0
32127.6,97.6731,-3833.4,0,0
33429.2,88.3934,-3690.93,0,0
34730.9,81.7638,-3549.36,0,0
36032.5,77.6398,-3418.4,0,0
37334.1,75.0906,-3296.16,0,0
38635.7,72.6263,-3182.94,0,0
39937.4,70.9583,-3076.41,0,0
41239,71.9008,-2977.63,0,0
42540.6,70.4979,-2885.64,0,0
43842.225,67.787,-2798.57,0,0
45143.85,68.2049,-2717.75,0,0
46445.475,65.4816,-2641.4,0,0
47747.1,63.7993,-2567.68,0,0
49048.725,61.3548,-2497.9,0,0
50350.35,59.7176,-2431.24,0,0
51651.975,58.7006,-2367.84,0,0
52953.6,57.5423,-2306.98,0,0
54255.225,56.6852,-2250.07,0,0
55556.85,55.7914,-2194.72,0,0
56858.475,54.7254,-2141.87,0,0
58160.1,54.5476,-2091.42,0,0
59461.7,54.4083,-2043.52,0,0
60763.3,54.5002,-1997.45,0,0
62065,53.0939,-1953.81,0,0
63366.6,52.4079,-1910.41,0,0
64668.2,52.8477,-1868.23,0,0
65969.8,55.0539,-1830.46,0,0
67271.5,53.6973,-1794.13,0,0
68573.1,53.2383,-1758.61,0,0
69874.7,52.0939,-1724.81,0,0
71176.3,50.4208,-1690.21,0,0
72478,48.4942,-1656.58,0,0
73779.6,48.0361,-1623.16,0,0
75081.2,48.5654,-1590.94,0,0
76382.825,49.2795,-1559.96,0,0
77684.45,50.2679,-1530.65,0,0
78986.075,51.8626,-1503.09,0,0
80287.7,51.232,-1476.7,0,0
81589.325,50.6806,-1448.91,0,0
82890.95,51.2783,-1422.09,0,0
84192.575,52.8494,-1396.08,0,0
85494.2,55.0595,-1371.4,0,0
86795.825,56.1243,-1348.4,0,0
88097.45,56.3224,-1325.25,0,0
89399.075,58.1256,-1300.59,0,0
90700.7,61.5619,-1277.31,0,0
92002.3,67.9128,-1256.51,0,0
93303.9,75.2338,-1239.72,0,0
94605.6,73.4681,-1232.52,0,0
95907.2,66.8785,-1213.81,0,0
97208.8,64.6168,-1193.17,0,0
98510.4,64.2829,-1172.52,0,0
99812.1,63.1939,-1152.87,0,0
101114,63.4623,-1132.84,0,0
102415,63.2018,-1111.51,0,0
103717,68.2512,-1090.12,0,0
105019,75.109,-1072.76,0,0
106320.175,81.595,-1056.57,0,0
107621.8,88.1093,-1044.31,0,0
108923.425,92.5938,-1033.88,0,0
110225.05,93.9996,-1025.89,0,0
111526.675,94.2276,-1013.33,0,0
112828.3,95.8265,-1003.82,0,0
114129.925,94.6585,-995.84,0,0
115431.55,90.8139,-986.012,0,0
116733.175,85.9596,-973.279,0,0
118034.8,82.1569,-958.566,0,0
119336.425,80.7814,-942.953,0,0
120638.05,81.4883,-928.834,0,0
121939.675,80.4714,-916.34,0,0
123241,79.1454,-902.063,0,0
124543,78.8843,-887.026,0,0
125845,79.7469,-872.377,0,0
127146,81.0451,-858.042,0,0
128448,83.1052,-843.756,0,0
129749,85.6255,-829.665,0,0
131051,90.7404,-816.64,0,0
132353,94.7177,-806.402,0,0
133654,97.4693,-795.986,0,0
134956,99.6651,-785.669,0,0
136258,102.595,-774.461,0,0
137559,107.322,-764.751,0,0
138860.775,109.422,-758.431,0,0
140162.4,109.319,-749.715,0,0
141464.025,109.298,-739.523,0,0
142765.65,110.092,-728.694,0,0
144067.275,111.238,-717.369,0,0
145368.9,113.966,-706.243,0,0
146670.525,116.386,-696.166,0,0
147972.15,118.708,-686.881,0,0
149273.775,121.194,-676.3,0,0
150575.4,122.548,-668.205,0,0
151877.025,121.564,-656.366,0,0
153178.65,121.769,-641.555,0,0
154480,125.95,-625.005,0,0
155782,133.746,-608.483,0,0
157084,145.559,-593.87,0,0
158385,158.342,-584.572,0,0
159687,168.69,-573.942,0,0
160988,186.817,-563.805,0,0
162290,205.357,-564.593,0,0
163592,217.165,-566.436,0,0
164893,228.796,-569.299,0,0
166195,241.039,-575.892,0,0
167497,246.083,-588,0,0
168798,243.228,-599.323,0,0
170100,233.853,-604.355,0,0
171401.375,226.332,-601.409,0,0
172703.0,221.188,-597.147,0,0
174004.625,217.807,-591.231,0,0
175306.25,216.804,-585.169,0,0
176607.875,217.762,-581.423,0,0
177909.5,216.543,-578.715,0,0
179211.125,212.203,-576.914,0,0
180512.75,206.316,-573.056,0,0
181814.375,198.831,-564.902,0,0
183116.0,192.631,-554.772,0,0
184417.625,186.966,-540.521,0,0
185719.25,185.852,-523.689,0,0
187021,188.041,-508.091,0,0
188322,191.697,-493.742,0,0
189624,194.974,-479.203,0,0
190926,200.187,-463.694,0,0
192227,206.27,-447.197,0,0
193529,215.22,-430.531,0,0
194831,225.551,-413.836,0,0
196132,238.546,-396.298,0,0
197434,255.243,-378.128,0,0
198735,276.509,-361.891,0,0
200037,298.185,-348.31,0,0
201339,324.302,-331.635,0,0
202640.35,360.89,-317.323,0,0
203941.975,404.113,-312.604,0,0
205243.6,456.017,-321.971,0,0
206545.225,498.718,-351.895,0,0
207846.85,526.822,-391.568,0,0
209148.475,538.584,-430.615,0,0
210450.1,536.12,-464.697,0,0
211751.725,527.166,-482.445,0,0
213053.35,525.794,-486.12,0,0
214354.975,537.987,-495.17,0,0
215656.6,549.2,-509.128,0,0
216958.225,557.631,-524.411,0,0
218259.85,572.846,-537.233,0,0
219561,589.24,-557.196,0,0
220863,607.891,-584.127,0,0
222165,625.938,-622.802,0,0
223466,630.262,-673.506,0,0
224768,619.344,-723.427,0,0
226070,598.121,-769.885,0,0
227371,565.328,-813.642,0,0
228673,519.988,-845.482,0,0
229974,471.87,-860.33,0,0
231276,428.717,-863.17,0,0
232578,393.534,-858.383,0,0
233879,365.855,-852.955,0,0
235180.95,339.973,-848.253,0,0
236482.575,315.522,-842.289,0,0
237784.2,292.143,-834.035,0,0
239085.825,271.501,-824.849,0,0
240387.45,252.221,-813.653,0,0
241689.075,235.571,-802.109,0,0
242990.7,221.393,-789.828,0,0
244292.325,208.941,-778.322,0,0
245593.95,196.999,-767.21,0,0
246895.575,185.737,-755.517,0,0
248197.2,175.861,-742.854,0,0
249498.825,167.715,-730.195,0,0
250800,160.721,-718.02,0,0
252102,154.578,-705.931,0,0
253404,149.206,-693.485,0,0
254705,145.223,-680.575,0,0
256007,143.367,-668.345,0,0
257309,142.086,-656.818,0,0
258610,141.663,-645.269,0,0
259912,143.605,-633.546,0,0
261213,147.917,-623.841,0,0
262515,153.14,-616.744,0,0
263817,158.538,-611.63,0,0
265118,164.518,-608.495,0,0
266420,171.096,-609.746,0,0
267721.55,172.999,-616.157,0,0
269023.175,167.468,-622.188,0,0
270324.8,157.538,-622.619,0,0
271626.425,148.068,-617.401,0,0
272928.05,142.003,-608.748,0,0
274229.675,140,-599.597,0,0
275531.3,140.08,-592.219,0,0
276832.925,140.995,-585.819,0,0
278134.55,143.576,-581.184,0,0
279436.175,145.328,-578.789,0,0
280737.8,145.912,-577.666,0,0
282039.425,144.893,-577.379,0,0
283341,141.653,-575.898,0,0
284643,137.833,-572.784,0,0
285944,134.686,-568.542,0,0
287246,130.91,-563.174,0,0
288548,128.813,-555.12,0,0
289849,131.009,-547.617,0,0
291151,133.971,-543.364,0,0
292452,135.432,-540.861,0,0
293754,134.405,-538.203,0,0
295056,133.12,-531.709,0,0
296357,136.113,-524.207,0,0
297659,141.176,-519.375,0,0
298960.525,146.392,-515.944,0,0
300262.15,151.881,-514.031,0,0
301563.775,157.557,-512.792,0,0
302865.4,164.492,-513.573,0,0
304167.025,170.058,-517.343,0,0
305468.65,173.943,-521.831,0,0
306770.275,177.025,-527.307,0,0
308071.9,178.198,-534.679,0,0
309373.525,176.348,-541.628,0,0
310675.15,173.761,-547.439,0,0
311976.775,169.718,-554.115,0,0
313278.4,162.637,-559.925,0,0
314580,154.418,-562.626,0,0
315882,146.652,-563.629,0,0
317183,138.843,-563.939,0,0
318485,130.815,-562.814,0,0
319787,123.238,-560.378,0,0
321088,116.227,-556.527,0,0
322390,110.396,-551.908,0,0
323691,105.571,-546.496,0,0
324993,102.636,-540.908,0,0
326295,100.884,-536.409,0,0
327596,99.4147,-532.636,0,0
328898,98.2834,-529.773,0,0
330200,96.7766,-527.9,0,0
331501.125,94.3983,-526.448,0,0
332802.75,91.2409,-524.621,0,0
334104.375,87.7112,-522.445,0,0
335406.0,83.9629,-519.76,0,0
336707.625,80.2995,-516.42,0,0
338009.25,76.9406,-512.602,0,0
339310.875,73.9618,-508.582,0,0
340612.5,71.3224,-504.362,0,0
341914.125,69.1058,-500.223,0,0
343215.75,66.932,-496.142,0,0
344517.375,64.8751,-492,0,0
345819.0,62.8035,-487.668,0,0
347121,61.0676,-483.141,0,0
348422,59.6316,-478.468,0,0
349724,58.6715,-473.782,0,0
351025,58.0526,-469.249,0,0
352327,57.6984,-464.975,0,0
353629,57.3797,-460.965,0,0
354930,57.0311,-456.967,0,0
356232,56.8752,-452.847,0,0
357534,57.0068,-448.962,0,0
358835,57.229,-445.305,0,0
360137,57.4452,-441.713,0,0
361438,57.7887,-438.172,0,0
362740.1,58.0373,-434.818,0,0
364041.725,58.4069,-431.344,0,0
365343.35,58.8835,-428.019,0,0
366644.975,59.2646,-424.711,0,0
367946.6,59.5292,-421.178,0,0
369248.225,60.0507,-416.792,0,0
370549.85,61.9434,-412.072,0,0
371851.475,65.1879,-408.375,0,0
373153.1,68.6806,-405.999,0,0
374454.725,72.1091,-404.654,0,0
375756.35,74.8817,-404.413,0,0
377057.975,76.7422,-404.316,0,0
378359.6,78.4418,-404.299,0,0
379661,79.6592,-404.499,0,0
380963,81.1033,-404.533,0,0
382264,82.7005,-406.122,0,0
383566,82.3378,-408.501,0,0
384868,80.3803,-410.274,0,0
386169,77.6249,-410.836,0,0
387471,74.4528,-410.271,0,0
388773,71.6968,-408.393,0,0
390074,69.9907,-406.237,0,0
391376,68.6828,-404.532,0,0
392677,67.1752,-402.977,0,0
393979,65.1518,-401.389,0,0
395280.7,62.863,-399.064,0,0
396582.325,60.8866,-396.052,0,0
397883.95,59.4341,-392.732,0,0
399185.575,58.3562,-389.392,0,0
400006.6,57.7945,-387.216,0,0