File: Accelerated corrosion test data/2025-10-10_18-00-03/sample_2.csv
Frequency (Hz),Impedance (ohms),Phase (Radians),Temperature (C),Humidity (%)
10000.0,233.623,-11392.7,0,0
11301.625,207.949,-10090.4,0,0
12603.25,186.852,-9058.97,0,0
13904.875,187.896,-8215.15,0,0
15206.5,167.455,-7526.29,0,0
16508.125,145.588,-6935.58,0,0
17809.75,134.651,-6429.46,0,0
19111.375,130.367,-5991.1,0,0
20413.0,120.062,-5609.75,0,0
21714.625,128.674,-5281.01,0,0
23016.25,113.664,-4986.12,0,0
24317.875,104.27,-4721.23,0,0
25619.5,98.6659,-4478.57,0,0
26921.1,96.1996,-4260.54,0,0
28222.7,91.2022,-4062.15,0,0
29524.4,93.8978,-3879.11,0,0
30826,88.6861,-3725.3,0,0
32127.6,82.8717,-3571.8,0,0
33429.2,80.4084,-3433.43,0,0
34730.9,76.2094,-3303.19,0,0
36032.5,73.7662,-3182.28,0,0
37334.1,71.4715,-3069.02,0,0
38635.7,69.5631,-2964.38,0,0
39937.4,67.6105,-2865.94,0,0
41239,66.085,-2773.08,0,0
42540.6,64.9133,-2687.07,0,0
43842.225,63.6443,-2605.32,0,0
45143.85,62.3405,-2527.73,0,0
46445.475,61.7102,-2455.64,0,0
47747.1,60.9736,-2386.59,0,0
49048.725,60.9048,-2322.65,0,0
50350.35,58.3021,-2260.82,0,0
51651.975,56.9759,-2201.69,0,0
52953.6,55.4687,-2144.75,0,0
54255.225,54.6568,-2090.35,0,0
55556.85,54.3338,-2038.44,0,0
56858.475,54.1503,-1988.7,0,0
58160.1,54.4531,-1941.61,0,0
59461.7,54.849,-1895.79,0,0
60763.3,56.5519,-1853.49,0,0
62065,59.1051,-1815.11,0,0
63366.6,55.9582,-1778.75,0,0
64668.2,53.1264,-1740.36,0,0
65969.8,50.9439,-1701.4,0,0
67271.5,51.5333,-1664.13,0,0
68573.1,53.7869,-1630.49,0,0
69874.7,56.2327,-1600.05,0,0
71176.3,52.7687,-1572,0,0
72478,48.1567,-1541.64,0,0
73779.6,45.5562,-1508.97,0,0
75081.2,45.4986,-1476.64,0,0
76382.825,47.1927,-1446.36,0,0
77684.45,49.9341,-1418.13,0,0
78986.075,53.2598,-1393.88,0,0
80287.7,52.0756,-1372.55,0,0
81589.325,49.5046,-1347.44,0,0
82890.95,48.3896,-1321.81,0,0
84192.575,49.1439,-1297.15,0,0
85494.2,49.8514,-1273.64,0,0
86795.825,51.0095,-1251.8,0,0
88097.45,51.5544,-1230.73,0,0
89399.075,51.5009,-1209.26,0,0
90700.7,51.9257,-1189.09,0,0
92002.3,53.0871,-1168.04,0,0
93303.9,55.7195,-1148.99,0,0
94605.6,55.6236,-1132.43,0,0
95907.2,54.9044,-1113.27,0,0
97208.8,58.2696,-1096.07,0,0
98510.4,58.0764,-1082.53,0,0
99812.1,53.7876,-1068.32,0,0
101114,50.7513,-1050.32,0,0
102415,47.2529,-1030.3,0,0
103717,46.374,-1009.5,0,0
105019,49.7409,-988.908,0,0
106320.175,54.6671,-972.156,0,0
107621.8,57.8064,-960.015,0,0
108923.425,56.3863,-947.857,0,0
110225.05,53.2975,-932.732,0,0
111526.675,52.3178,-915.003,0,0
112828.3,52.7379,-897.565,0,0
114129.925,54.5316,-880.59,0,0
115431.55,57.4022,-864.264,0,0
116733.175,60.9924,-849.172,0,0
118034.8,64.8718,-835.505,0,0
119336.425,68.3081,-823.872,0,0
120638.05,70.1123,-813.595,0,0
121939.675,69.1603,-802.28,0,0
123241,68.0788,-789.211,0,0
124543,67.3918,-775.136,0,0
125845,67.7164,-760.063,0,0
127146,69.3383,-745.003,0,0
128448,72.1296,-730.787,0,0
129749,74.6539,-717.673,0,0
131051,76.8933,-704.544,0,0
132353,78.5085,-691.901,0,0
133654,79.7669,-677.858,0,0
134956,81.4848,-663.536,0,0
136258,84.1513,-648.357,0,0
137559,87.4284,-633.281,0,0
138860.775,91.1249,-618.321,0,0
140162.4,94.803,-602.279,0,0
141464.025,100.599,-583.719,0,0
142765.65,110.408,-566.038,0,0
144067.275,121.981,-551.192,0,0
145368.9,133.721,-537.056,0,0
146670.525,146.928,-523.681,0,0
147972.15,163.163,-511.012,0,0
149273.775,183.08,-500.185,0,0
150575.4,209.166,-498.531,0,0
151877.025,229.106,-511.14,0,0
153178.65,233.647,-525.821,0,0
154480,229.866,-534.872,0,0
155782,224.284,-535.725,0,0
157084,218.574,-532.938,0,0
158385,214.996,-524.116,0,0
159687,216.724,-516.363,0,0
160988,218.185,-510.653,0,0
162290,223.65,-505.958,0,0
163592,221.438,-510.439,0,0
164893,208.974,-506.412,0,0
166195,197.296,-493.101,0,0
167497,190.226,-472.915,0,0
168798,189.037,-450.054,0,0
170100,192.606,-428.6,0,0
171401.375,196.701,-406.299,0,0
172703.0,206.09,-381.865,0,0
174004.625,219.746,-356.748,0,0
175306.25,241.159,-332.531,0,0
176607.875,268.565,-317.691,0,0
177909.5,295.295,-307.392,0,0
179211.125,316.912,-309.564,0,0
180512.75,325.46,-307.015,0,0
181814.375,331.385,-290.545,0,0
183116.0,350.221,-268.413,0,0
184417.625,377.149,-244.984,0,0
185719.25,415.145,-225.964,0,0
187021,456.461,-218.01,0,0
188322,499.735,-212.313,0,0
189624,542.383,-214.67,0,0
190926,588.3,-213.516,0,0
192227,647.429,-216.804,0,0
193529,718.651,-238.995,0,0
194831,783.188,-289.367,0,0
196132,832.127,-353.311,0,0
197434,866.145,-421.982,0,0
198735,892.745,-501.609,0,0
200037,894.898,-584.245,0,0
201339,883.214,-671.865,0,0
202640.35,843.252,-750.414,0,0
203941.975,786.214,-808.267,0,0
205243.6,731.033,-847.629,0,0
206545.225,668.633,-870.511,0,0
207846.85,618.257,-875.081,0,0
209148.475,582.525,-878.528,0,0
210450.1,544.201,-888.784,0,0
211751.725,499.471,-888.728,0,0
213053.35,463.357,-876.966,0,0
214354.975,433.649,-862.931,0,0
215656.6,410.897,-847.853,0,0
216958.225,392.769,-832.144,0,0
218259.85,379.892,-816.797,0,0
219561,371.495,-803.417,0,0
220863,365.972,-792.993,0,0
222165,363.269,-783.926,0,0
223466,363.203,-780.657,0,0
224768,360.361,-781.256,0,0
226070,355.177,-781.288,0,0
227371,352.776,-782.212,0,0
228673,350.304,-788.385,0,0
229974,342.134,-799.137,0,0
231276,326.991,-807.697,0,0
232578,309.463,-811.916,0,0
233879,291.011,-812.583,0,0
235180.95,273.316,-810.463,0,0
236482.575,256.181,-806.474,0,0
237784.2,239.167,-800.637,0,0
239085.825,223.47,-792.427,0,0
240387.45,209.621,-782.571,0,0
241689.075,198.115,-772.309,0,0
242990.7,188.216,-761.95,0,0
244292.325,179.443,-753.206,0,0
245593.95,170.359,-744.897,0,0
246895.575,159.557,-737.083,0,0
248197.2,147.442,-725.674,0,0
249498.825,137.408,-711.708,0,0
250800,129.578,-696.384,0,0
252102,124.594,-679.682,0,0
253404,122.649,-663.792,0,0
254705,122.068,-648.636,0,0
256007,123.431,-633.12,0,0
257309,128.179,-618.993,0,0
258610,134.165,-607.105,0,0
259912,141.525,-596.586,0,0
261213,150.648,-588.654,0,0
262515,160.232,-583.976,0,0
263817,168.964,-582.111,0,0
265118,176.22,-583.145,0,0
266420,179.704,-585.254,0,0
267721.55,182.058,-586.094,0,0
269023.175,182.787,-586.718,0,0
270324.8,183.065,-584.517,0,0
271626.425,186.503,-580.567,0,0
272928.05,193.346,-578.366,0,0
274229.675,203.676,-579.691,0,0
275531.3,215.107,-589.795,0,0
276832.925,217.539,-608.707,0,0
278134.55,207.907,-624.165,0,0
279436.175,195.223,-632.771,0,0
280737.8,181.399,-637.039,0,0
282039.425,168.369,-638.315,0,0
283341,153.461,-636.359,0,0
284643,142.61,-629.909,0,0
285944,130.754,-625.063,0,0
287246,117.997,-613.329,0,0
288548,111.7,-596.436,0,0
289849,114.192,-577.675,0,0
291151,126.637,-565.767,0,0
292452,141.064,-565.7,0,0
293754,146.356,-575.255,0,0
295056,142.563,-578.847,0,0
296357,144.644,-578.854,0,0
297659,144.255,-588.168,0,0
298960.525,135.355,-593.418,0,0
300262.15,126.296,-594.126,0,0
301563.775,117.86,-591.09,0,0
302865.4,113.921,-587.257,0,0
304167.025,110.258,-587.176,0,0
305468.65,103.026,-587.47,0,0
306770.275,94.211,-584.734,0,0
308071.9,86.3664,-579.316,0,0
309373.525,80.4544,-572.856,0,0
310675.15,75.7497,-566.656,0,0
311976.775,71.4828,-560.221,0,0
313278.4,68.2072,-553.492,0,0
314580,65.7084,-547.271,0,0
315882,63.36,-541.227,0,0
317183,61.4923,-534.798,0,0
318485,60.4683,-528.878,0,0
319787,59.6195,-523.506,0,0
321088,58.6621,-518.383,0,0
322390,57.7418,-513.071,0,0
323691,56.7626,-507.502,0,0
324993,56.5851,-500.991,0,0
326295,58.6354,-494.633,0,0
327596,61.9851,-490.805,0,0
328898,64.0461,-488.703,0,0
330200,65.4453,-487.011,0,0
331501.125,66.2133,-486.214,0,0
332802.75,65.3824,-485.873,0,0
334104.375,62.8937,-484.583,0,0
335406.0,60.4936,-481.671,0,0
336707.625,58.5878,-478.266,0,0
338009.25,56.9601,-474.415,0,0
339310.875,55.696,-470.344,0,0
340612.5,54.8653,-465.958,0,0
341914.125,54.6419,-461.686,0,0
343215.75,54.6291,-457.445,0,0
344517.375,55.0342,-453.22,0,0
345819.0,55.878,-449.227,0,0
347121,57.0928,-445.567,0,0
348422,58.4306,-442.289,0,0
349724,60.0303,-439.32,0,0
351025,61.6815,-436.987,0,0
352327,62.9445,-435.124,0,0
353629,63.9698,-433.226,0,0
354930,65.0234,-431.253,0,0
356232,66.2318,-429.451,0,0
357534,67.6859,-427.85,0,0
358835,69.3685,-426.909,0,0
360137,70.5654,-426.901,0,0
361438,70.9047,-427.151,0,0
362740.1,70.5651,-427.386,0,0
364041.725,69.6475,-427.236,0,0
365343.35,68.3834,-426.687,0,0
366644.975,66.8771,-425.578,0,0
367946.6,65.8626,-423.773,0,0
369248.225,65.5313,-422.26,0,0
370549.85,65.1829,-421.534,0,0
371851.475,63.8921,-420.808,0,0
373153.1,62.5689,-419.549,0,0
374454.725,61.513,-418.284,0,0
375756.35,60.0026,-417.242,0,0
377057.975,58.373,-415.677,0,0
378359.6,56.9651,-414.368,0,0
379661,54.3117,-412.93,0,0
380963,52.0207,-409.343,0,0
382264,51.9984,-406.588,0,0
383566,50.8749,-405.091,0,0
384868,49.0214,-403.071,0,0
386169,47.1161,-400.326,0,0
387471,45.5807,-397.001,0,0
388773,44.5974,-393.51,0,0
390074,44.3577,-389.993,0,0
391376,44.632,-387.316,0,0
392677,44.1444,-385.565,0,0
393979,42.6409,-383.208,0,0
395280.7,41.1462,-379.811,0,0
396582.325,40.423,-375.754,0,0
397883.95,40.3992,-371.822,0,0
399185.575,40.8512,-368.171,0,0
400006.6,41.3007,-366.04,0,0