File: Accelerated corrosion test data/2025-10-10_18-00-03/sample_6.csv
Frequency (Hz),Impedance (ohms),Phase (Radians),Temperature (C),Humidity (%)
10000.0,4229.24,-6500.32,0,0
11301.625,3602.13,-6129.25,0,0
12603.25,3102.19,-5772.35,0,0
13904.875,2696.53,-5443.48,0,0
15206.5,2364.87,-5136.48,0,0
16508.125,2090.98,-4854.61,0,0
17809.75,1862.76,-4596.62,0,0
19111.375,1671.56,-4360.61,0,0
20413.0,1507.28,-4146.92,0,0
21714.625,1366.55,-3947.84,0,0
23016.25,1249.07,-3763.13,0,0
24317.875,1143.81,-3601.26,0,0
25619.5,1051.18,-3446.76,0,0
26921.1,970.66,-3303.28,0,0
28222.7,899.9,-3171.1,0,0
29524.4,836.099,-3046.24,0,0
30826,782.467,-2931.93,0,0
32127.6,733.626,-2823,0,0
33429.2,695.678,-2726.1,0,0
34730.9,652.914,-2638.18,0,0
36032.5,613.216,-2554.2,0,0
37334.1,577.121,-2469.39,0,0
38635.7,545.924,-2389.15,0,0
39937.4,521.225,-2313.26,0,0
41239,499.264,-2245.45,0,0
42540.6,475.391,-2183.62,0,0
43842.225,454.488,-2117.76,0,0
45143.85,440.272,-2058.23,0,0
46445.475,427.973,-2006.83,0,0
47747.1,413.025,-1960.89,0,0
49048.725,396.081,-1918,0,0
50350.35,374.196,-1875.7,0,0
51651.975,354.531,-1829.12,0,0
52953.6,338.156,-1783.88,0,0
54255.225,321.606,-1740.62,0,0
55556.85,307.115,-1697.11,0,0
56858.475,295.79,-1652.19,0,0
58160.1,288.812,-1612.06,0,0
59461.7,281.721,-1575.04,0,0
60763.3,275.182,-1539.55,0,0
62065,269.344,-1508.8,0,0
63366.6,263.583,-1474.07,0,0
64668.2,258.04,-1448.54,0,0
65969.8,247.894,-1419.4,0,0
67271.5,240.292,-1388,0,0
68573.1,236.797,-1358.07,0,0
69874.7,234.65,-1331.65,0,0
71176.3,231.672,-1309.1,0,0
72478,225.237,-1287.29,0,0
73779.6,218.755,-1263.5,0,0
75081.2,214.265,-1239.65,0,0
76382.825,210.207,-1217.81,0,0
77684.45,205.677,-1196.94,0,0
78986.075,200.852,-1176.21,0,0
80287.7,196.151,-1156.08,0,0
81589.325,190.813,-1136.02,0,0
82890.95,186,-1115.43,0,0
84192.575,181.727,-1095.04,0,0
85494.2,177.786,-1074.26,0,0
86795.825,175.597,-1053.46,0,0
88097.45,174.768,-1033.79,0,0
89399.075,175.719,-1016,0,0
90700.7,176.195,-1001.3,0,0
92002.3,172.784,-988.334,0,0
93303.9,168.684,-971.747,0,0
94605.6,167.402,-954.491,0,0
95907.2,167.267,-940.206,0,0
97208.8,165.222,-927.749,0,0
98510.4,161.268,-912.429,0,0
99812.1,160.954,-897.453,0,0
101114,160.713,-885.894,0,0
102415,157.403,-874.208,0,0
103717,153.708,-863.152,0,0
105019,146.859,-851.557,0,0
106320.175,137.976,-834.518,0,0
107621.8,134.705,-813.146,0,0
108923.425,136.253,-794.131,0,0
110225.05,138.702,-776.394,0,0
111526.675,143.743,-760.017,0,0
112828.3,150.429,-748.471,0,0
114129.925,154.32,-738.811,0,0
115431.55,158.908,-729.163,0,0
116733.175,164.488,-726.103,0,0
118034.8,157.361,-724.96,0,0
119336.425,149.938,-712.936,0,0
120638.05,149.355,-698.282,0,0
121939.675,149.716,-691.331,0,0
123241,145.455,-680.565,0,0
124543,143.543,-669.648,0,0
125845,140.684,-658.669,0,0
127146,137.673,-646.257,0,0
128448,136.73,-631.744,0,0
129749,138.419,-619.75,0,0
131051,138.123,-609.201,0,0
132353,137.141,-597.468,0,0
133654,137.063,-585.145,0,0
134956,137.051,-572.355,0,0
136258,137.847,-558.998,0,0
137559,140.533,-545.685,0,0
138860.775,143.555,-533.799,0,0
140162.4,146.912,-521.866,0,0
141464.025,151.709,-510.806,0,0
142765.65,155.147,-502.162,0,0
144067.275,157.164,-492.594,0,0
145368.9,160.099,-482.178,0,0
146670.525,162.955,-473.224,0,0
147972.15,163.775,-464.649,0,0
149273.775,163.329,-452.788,0,0
150575.4,165.079,-438.873,0,0
151877.025,169.438,-423.356,0,0
153178.65,178.699,-410.52,0,0
154480,185.758,-402.615,0,0
155782,190.85,-391.433,0,0
157084,199.68,-382.956,0,0
158385,203.725,-377.064,0,0
159687,206.197,-367.761,0,0
160988,209.734,-356.93,0,0
162290,213.592,-345.64,0,0
163592,218.588,-332.462,0,0
164893,224.692,-319.812,0,0
166195,231.82,-306.301,0,0
167497,240.029,-293.018,0,0
168798,249.778,-279.434,0,0
170100,260.047,-267.189,0,0
171401.375,269.944,-254.702,0,0
172703.0,280.025,-241.488,0,0
174004.625,290.072,-227.084,0,0
175306.25,301.247,-209.782,0,0
176607.875,315.645,-190.117,0,0
177909.5,334.542,-168.841,0,0
179211.125,359.789,-147.955,0,0
180512.75,389.238,-131.955,0,0
181814.375,419.196,-117.566,0,0
183116.0,452.073,-105.355,0,0
184417.625,484.845,-92.974,0,0
185719.25,523.33,-77.0427,0,0
187021,572.881,-62.1953,0,0
188322,634.48,-53.955,0,0
189624,706.351,-59.865,0,0
190926,781.499,-85.6023,0,0
192227,847.725,-128.001,0,0
193529,907.943,-176.821,0,0
194831,967.541,-237.005,0,0
196132,1020.66,-314.14,0,0
197434,1059.62,-407.456,0,0
198735,1076.35,-512.097,0,0
200037,1069.74,-619.212,0,0
201339,1039.09,-723.697,0,0
202640.35,984.573,-816.932,0,0
203941.975,912.959,-889.973,0,0
205243.6,834.263,-941.5,0,0
206545.225,754.274,-973.828,0,0
207846.85,678.232,-989.67,0,0
209148.475,608.355,-992.903,0,0
210450.1,546.332,-987.056,0,0
211751.725,490.846,-975.026,0,0
213053.35,443.232,-957.151,0,0
214354.975,402.482,-938.415,0,0
215656.6,365.916,-917.257,0,0
216958.225,334.993,-894.953,0,0
218259.85,308.003,-871.941,0,0
219561,284.912,-848.182,0,0
220863,265.595,-823.709,0,0
222165,250.396,-798.922,0,0
223466,239.852,-774.052,0,0
224768,234.764,-750.772,0,0
226070,234.212,-732.648,0,0
227371,232.922,-720.813,0,0
228673,227.72,-710.546,0,0
229974,221.029,-698.36,0,0
231276,215.352,-684.396,0,0
232578,211.52,-669.762,0,0
233879,209.618,-654.986,0,0
235180.95,209.689,-640.698,0,0
236482.575,211.875,-627.326,0,0
237784.2,215.594,-615.176,0,0
239085.825,220.799,-604.355,0,0
240387.45,227.396,-595.348,0,0
241689.075,234.54,-588.398,0,0
242990.7,242.113,-583.132,0,0
244292.325,250.631,-579.268,0,0
245593.95,259.892,-578.376,0,0
246895.575,267.678,-580.186,0,0
248197.2,274.352,-583.447,0,0
249498.825,279.663,-587.094,0,0
250800,287.315,-591.054,0,0
252102,295.23,-601.614,0,0
253404,297.894,-616.185,0,0
254705,295.214,-631.987,0,0
256007,286.741,-646.685,0,0
257309,274.223,-657.755,0,0
258610,260.101,-664.976,0,0
259912,245.55,-668.991,0,0
261213,231.26,-670.275,0,0
262515,217.796,-669.434,0,0
263817,205.351,-667.126,0,0
265118,193.715,-663.733,0,0
266420,183.124,-659.325,0,0
267721.55,173.307,-654.494,0,0
269023.175,164.216,-649.155,0,0
270324.8,155.851,-643.417,0,0
271626.425,148.152,-637.335,0,0
272928.05,141.124,-630.976,0,0
274229.675,134.822,-624.558,0,0
275531.3,128.979,-617.922,0,0
276832.925,123.764,-611.328,0,0
278134.55,119.077,-604.7,0,0
279436.175,114.803,-597.993,0,0
280737.8,111.454,-591.162,0,0
282039.425,108.866,-585.039,0,0
283341,106.119,-579.423,0,0
284643,103.583,-573.643,0,0
285944,101.872,-568.068,0,0
287246,100.381,-563.717,0,0
288548,97.9988,-559.701,0,0
289849,95.4318,-555.192,0,0
291151,93.2294,-550.63,0,0
292452,91.2141,-546.323,0,0
293754,89.0802,-542.351,0,0
295056,86.4878,-538.323,0,0
296357,83.7044,-533.694,0,0
297659,81.4765,-528.361,0,0
298960.525,80.4467,-523.19,0,0
300262.15,79.6992,-519.086,0,0
301563.775,78.3504,-515.305,0,0
302865.4,76.8976,-511.437,0,0
304167.025,75.641,-507.368,0,0
305468.65,74.6237,-503.432,0,0
306770.275,73.7006,-499.88,0,0
308071.9,72.4079,-496.633,0,0
309373.525,71.0498,-493.141,0,0
310675.15,69.739,-489.645,0,0
311976.775,68.412,-486.198,0,0
313278.4,67.0192,-482.753,0,0
314580,65.6436,-479.097,0,0
315882,64.461,-475.502,0,0
317183,63.3795,-471.998,0,0
318485,62.3042,-468.522,0,0
319787,61.2189,-464.981,0,0
321088,60.2505,-461.367,0,0
322390,59.4145,-457.873,0,0
323691,58.6497,-454.494,0,0
324993,57.9463,-451.236,0,0
326295,57.0532,-448.041,0,0
327596,56.2457,-444.742,0,0
328898,55.4333,-441.445,0,0
330200,54.6725,-438.063,0,0
331501.125,53.9973,-434.723,0,0
332802.75,53.4091,-431.313,0,0
334104.375,53.0519,-428.085,0,0
335406.0,52.6417,-424.866,0,0
336707.625,52.3187,-421.779,0,0
338009.25,51.9546,-418.764,0,0
339310.875,51.5492,-415.698,0,0
340612.5,51.2532,-412.644,0,0
341914.125,51.052,-409.555,0,0
343215.75,51.0684,-406.675,0,0
344517.375,50.913,-404.083,0,0
345819.0,50.4382,-401.355,0,0
347121,50.1129,-398.377,0,0
348422,49.982,-395.445,0,0
349724,49.9739,-392.553,0,0
351025,50.0873,-389.768,0,0
352327,50.211,-387.15,0,0
353629,50.3818,-384.646,0,0
354930,50.4797,-382.308,0,0
356232,50.3625,-380.045,0,0
357534,50.2815,-377.67,0,0
358835,50.2762,-375.384,0,0
360137,50.1491,-373.152,0,0
361438,49.9392,-370.903,0,0
362740.1,49.6401,-368.568,0,0
364041.725,49.3998,-366.136,0,0
365343.35,49.2655,-363.7,0,0
366644.975,49.1782,-361.245,0,0
367946.6,49.1631,-358.9,0,0
369248.225,49.1281,-356.593,0,0
370549.85,49.0975,-354.226,0,0
371851.475,49.2011,-351.961,0,0
373153.1,49.3268,-349.812,0,0
374454.725,49.3578,-347.965,0,0
375756.35,48.9922,-346.062,0,0
377057.975,48.5064,-343.877,0,0
378359.6,48.0926,-341.551,0,0
379661,47.7447,-339.145,0,0
380963,47.4496,-336.618,0,0
382264,47.2763,-333.934,0,0
383566,47.6457,-331.417,0,0
384868,47.575,-329.383,0,0
386169,47.3679,-327.047,0,0
387471,47.2097,-324.595,0,0
388773,47.1151,-322.098,0,0
390074,47.0557,-319.564,0,0
391376,47.0564,-317.039,0,0
392677,47.0558,-314.461,0,0
393979,47.0834,-311.879,0,0
395280.7,47.1909,-309.252,0,0
396582.325,47.2752,-306.58,0,0
397883.95,47.4721,-303.917,0,0
399185.575,47.7057,-301.196,0,0
400006.6,47.878,-299.493,0,0