File: Accelerated corrosion test data/2025-10-10_18-00-03/sample_3.csv
Frequency (Hz),Impedance (ohms),Phase (Radians),Temperature (C),Humidity (%)
10000.0,249.96,-11784.3,0,0
11301.625,222.499,-10438,0,0
12603.25,201.484,-9367.82,0,0
13904.875,184.551,-8495.29,0,0
15206.5,172.568,-7765.72,0,0
16508.125,161,-7171.13,0,0
17809.75,155.587,-6643.14,0,0
19111.375,145.568,-6191.55,0,0
20413.0,158.057,-5792.07,0,0
21714.625,137.812,-5470.44,0,0
23016.25,127.461,-5164.99,0,0
24317.875,117.998,-4885.78,0,0
25619.5,113.059,-4638.87,0,0
26921.1,107.748,-4408.43,0,0
28222.7,103.572,-4202.34,0,0
29524.4,108.31,-4024.67,0,0
30826,100.521,-3853.19,0,0
32127.6,100.775,-3689.03,0,0
33429.2,99.0425,-3563.82,0,0
34730.9,87.4997,-3426.44,0,0
36032.5,82.7875,-3298.68,0,0
37334.1,79.8242,-3180.9,0,0
38635.7,77.5972,-3071.29,0,0
39937.4,75.3047,-2968.91,0,0
41239,73.9674,-2871.62,0,0
42540.6,72.8134,-2782.06,0,0
43842.225,71.2551,-2696.61,0,0
45143.85,70.5419,-2616.98,0,0
46445.475,69.3766,-2541.36,0,0
47747.1,69.6548,-2468.94,0,0
49048.725,68.2075,-2403.51,0,0
50350.35,66.2321,-2338.45,0,0
51651.975,65.805,-2275.76,0,0
52953.6,66.1811,-2216.05,0,0
54255.225,69.0617,-2161.1,0,0
55556.85,66.3309,-2113.73,0,0
56858.475,61.3899,-2060.9,0,0
58160.1,60.8522,-2009.09,0,0
59461.7,61.4959,-1959.82,0,0
60763.3,62.7332,-1913.18,0,0
62065,64.8613,-1868.57,0,0
63366.6,68.4561,-1825.13,0,0
64668.2,77.2841,-1783.2,0,0
65969.8,91.4993,-1757.97,0,0
67271.5,75.775,-1732.57,0,0
68573.1,75.8971,-1695.14,0,0
69874.7,75.5462,-1665.98,0,0
71176.3,70.3807,-1635.55,0,0
72478,69.0416,-1602.8,0,0
73779.6,67.3988,-1574.43,0,0
75081.2,63.8623,-1546.18,0,0
76382.825,60.3342,-1516.92,0,0
77684.45,57.8953,-1488,0,0
78986.075,55.6252,-1459.54,0,0
80287.7,54.206,-1431.56,0,0
81589.325,53.1903,-1404.39,0,0
82890.95,52.6139,-1378,0,0
84192.575,52.3069,-1352.34,0,0
85494.2,52.2622,-1327.28,0,0
86795.825,52.4411,-1303.04,0,0
88097.45,52.9585,-1279.05,0,0
89399.075,54.425,-1255.39,0,0
90700.7,56.7255,-1233.68,0,0
92002.3,59.0146,-1213.08,0,0
93303.9,62.0912,-1194.24,0,0
94605.6,62.8742,-1179.77,0,0
95907.2,57.7398,-1162.07,0,0
97208.8,56.3828,-1141.02,0,0
98510.4,56.1958,-1121.48,0,0
99812.1,55.6207,-1102.64,0,0
101114,55.1326,-1082.91,0,0
102415,56.3942,-1062.51,0,0
103717,60.3193,-1044.75,0,0
105019,63.5906,-1030.7,0,0
106320.175,62.8772,-1017.05,0,0
107621.8,60.4502,-1001.43,0,0
108923.425,58.6637,-983.758,0,0
110225.05,58.7182,-965.221,0,0
111526.675,60.9712,-947.404,0,0
112828.3,63.2599,-931.38,0,0
114129.925,64.8513,-915.468,0,0
115431.55,66.9967,-898.567,0,0
116733.175,70.7615,-882.047,0,0
118034.8,76.5896,-866.339,0,0
119336.425,83.0636,-854.673,0,0
120638.05,88.9907,-848.2,0,0
121939.675,86.3712,-839.883,0,0
123241,86.6702,-826.712,0,0
124543,88.1661,-815.401,0,0
125845,89.3628,-805.057,0,0
127146,88.7001,-795.402,0,0
128448,87.0418,-784.458,0,0
129749,85.3847,-771.363,0,0
131051,86.3988,-758.324,0,0
132353,85.996,-747.279,0,0
133654,85.3737,-735.364,0,0
134956,83.7729,-722.931,0,0
136258,82.3709,-709.427,0,0
137559,82.2545,-694.222,0,0
138860.775,83.4828,-680.753,0,0
140162.4,82.6158,-667.312,0,0
141464.025,82.4232,-652.984,0,0
142765.65,81.7945,-637.111,0,0
144067.275,82.1343,-619.996,0,0
145368.9,83.8068,-601.946,0,0
146670.525,86.543,-583.177,0,0
147972.15,90.795,-563.281,0,0
149273.775,97.453,-543.177,0,0
150575.4,107.905,-522.784,0,0
151877.025,120.679,-506.191,0,0
153178.65,133.345,-492.538,0,0
154480,143.413,-480.529,0,0
155782,151.266,-464.412,0,0
157084,163.032,-447.027,0,0
158385,179.774,-435.071,0,0
159687,184.574,-421.192,0,0
160988,200.266,-392.407,0,0
162290,226.544,-367.722,0,0
163592,262.663,-347.615,0,0
164893,310.584,-336.746,0,0
166195,363.008,-349.834,0,0
167497,401.706,-383.522,0,0
168798,421.909,-419.862,0,0
170100,421.507,-461.215,0,0
171401.375,405.72,-477.809,0,0
172703.0,399.866,-479.982,0,0
174004.625,408.523,-487.696,0,0
175306.25,412.402,-505.375,0,0
176607.875,405.947,-523.599,0,0
177909.5,385.606,-538.832,0,0
179211.125,363.363,-532.288,0,0
180512.75,358.407,-519.196,0,0
181814.375,362.467,-514.872,0,0
183116.0,355.867,-521.028,0,0
184417.625,341.064,-518.416,0,0
185719.25,327.862,-505.083,0,0
187021,322.874,-482.19,0,0
188322,329.877,-463.027,0,0
189624,335.657,-449.447,0,0
190926,345.44,-435.528,0,0
192227,354.649,-422.213,0,0
193529,365.648,-404.448,0,0
194831,388.912,-386.347,0,0
196132,422.772,-382.288,0,0
197434,444.377,-395.509,0,0
198735,457.001,-400.915,0,0
200037,468.45,-404.997,0,0
201339,473.412,-402.524,0,0
202640.35,491.662,-392.871,0,0
203941.975,521.105,-391.488,0,0
205243.6,549.778,-403.303,0,0
206545.225,564.506,-421.214,0,0
207846.85,581.271,-421.455,0,0
209148.475,612.627,-430.277,0,0
210450.1,644.995,-451.923,0,0
211751.725,671.66,-483.546,0,0
213053.35,691.927,-518.827,0,0
214354.975,705.967,-560.214,0,0
215656.6,714.786,-605.122,0,0
216958.225,711.097,-653.373,0,0
218259.85,696.728,-695.894,0,0
219561,677.728,-732.458,0,0
220863,658.163,-770.519,0,0
222165,627.772,-806.586,0,0
223466,583.836,-832.99,0,0
224768,541.449,-835.122,0,0
226070,519.347,-830.761,0,0
227371,504.054,-839.853,0,0
228673,479.682,-853.196,0,0
229974,450.718,-859.488,0,0
231276,422.637,-861.407,0,0
232578,396.714,-859.733,0,0
233879,372.397,-856.527,0,0
235180.95,349.254,-852.087,0,0
236482.575,325.125,-847.167,0,0
237784.2,300.863,-838.443,0,0
239085.825,276.967,-824.419,0,0
240387.45,259.569,-806.089,0,0
241689.075,246.129,-788.46,0,0
242990.7,238.014,-770.354,0,0
244292.325,233.047,-755.648,0,0
245593.95,228.558,-744.01,0,0
246895.575,223.457,-732.6,0,0
248197.2,219.274,-721.169,0,0
249498.825,218.304,-710.439,0,0
250800,216.546,-704.515,0,0
252102,210.355,-698.643,0,0
253404,201.964,-688.258,0,0
254705,197.173,-672.992,0,0
256007,197.73,-656.187,0,0
257309,205.72,-642.067,0,0
258610,214.14,-634.197,0,0
259912,225.008,-626.348,0,0
261213,240.228,-627.37,0,0
262515,250.079,-639.3,0,0
263817,248.536,-653.403,0,0
265118,238.458,-664.062,0,0
266420,224.028,-667.045,0,0
267721.55,210.423,-662.576,0,0
269023.175,201.345,-653.521,0,0
270324.8,196.264,-644.621,0,0
271626.425,194.39,-635.164,0,0
272928.05,194.702,-628.527,0,0
274229.675,193.916,-621.178,0,0
275531.3,197.329,-613.061,0,0
276832.925,204.967,-608.881,0,0
278134.55,212.35,-611.309,0,0
279436.175,215.668,-618.257,0,0
280737.8,212.833,-626.187,0,0
282039.425,205.902,-631.334,0,0
283341,196.904,-632.935,0,0
284643,187.787,-631.292,0,0
285944,179.751,-626.609,0,0
287246,174.181,-619.642,0,0
288548,172.843,-612.718,0,0
289849,172.726,-609.185,0,0
291151,171.388,-606.731,0,0
292452,168.697,-604.069,0,0
293754,167.181,-598.917,0,0
295056,169.307,-595.122,0,0
296357,172.093,-595.504,0,0
297659,172.047,-598.745,0,0
298960.525,168.477,-602.073,0,0
300262.15,162.971,-603.745,0,0
301563.775,156.501,-603.844,0,0
302865.4,149.691,-601.997,0,0
304167.025,143.534,-598.855,0,0
305468.65,137.98,-594.49,0,0
306770.275,133.824,-589.243,0,0
308071.9,131.53,-584.461,0,0
309373.525,129.59,-581.24,0,0
310675.15,126.677,-578.778,0,0
311976.775,122.61,-575.927,0,0
313278.4,117.946,-571.449,0,0
314580,114.468,-565.288,0,0
315882,113.187,-558.44,0,0
317183,114.2,-553.215,0,0
318485,114.924,-550.16,0,0
319787,114.79,-547.406,0,0
321088,114.708,-544.62,0,0
322390,115.687,-542.461,0,0
323691,116.162,-542.359,0,0
324993,114.787,-543.278,0,0
326295,111.598,-543.716,0,0
327596,107.319,-543.021,0,0
328898,102.917,-541.057,0,0
330200,98.7403,-538.401,0,0
331501.125,94.6734,-535.429,0,0
332802.75,90.3265,-531.876,0,0
334104.375,85.9587,-527.463,0,0
335406.0,82.2273,-521.853,0,0
336707.625,79.5676,-515.857,0,0
338009.25,77.5869,-509.782,0,0
339310.875,76.428,-503.26,0,0
340612.5,76.678,-496.59,0,0
341914.125,78.6374,-490.843,0,0
343215.75,81.1631,-487.17,0,0
344517.375,82.9501,-485.076,0,0
345819.0,83.1715,-483.517,0,0
347121,82.7306,-481.32,0,0
348422,82.0263,-478.694,0,0
349724,81.5887,-475.161,0,0
351025,82.4207,-471.76,0,0
352327,84.1286,-469.829,0,0
353629,84.2932,-469.557,0,0
354930,82.677,-468.571,0,0
356232,80.9282,-466.455,0,0
357534,79.2953,-463.722,0,0
358835,78.089,-460.166,0,0
360137,77.8933,-456.655,0,0
361438,77.9756,-453.793,0,0
362740.1,77.8425,-450.892,0,0
364041.725,78.3801,-447.664,0,0
365343.35,80.0461,-445.715,0,0
366644.975,80.318,-445.616,0,0
367946.6,78.4965,-445.003,0,0
369248.225,75.9142,-442.134,0,0
370549.85,75.5937,-437.561,0,0
371851.475,77.394,-434.941,0,0
373153.1,77.7424,-434.68,0,0
374454.725,75.97,-433.533,0,0
375756.35,74.1116,-430.833,0,0
377057.975,73.2613,-427.07,0,0
378359.6,73.5899,-423.625,0,0
379661,74.623,-420.867,0,0
380963,75.4386,-419.204,0,0
382264,75.5739,-417.807,0,0
383566,75.3821,-416.571,0,0
384868,74.5638,-415.252,0,0
386169,73.3235,-413.206,0,0
387471,72.0947,-410.623,0,0
388773,71.0162,-407.488,0,0
390074,70.4725,-403.597,0,0
391376,71.1335,-399.552,0,0
392677,72.8785,-395.844,0,0
393979,75.3666,-393.358,0,0
395280.7,77.7976,-392.076,0,0
396582.325,79.7139,-391.717,0,0
397883.95,80.8208,-392.179,0,0
399185.575,80.6137,-392.764,0,0
400006.6,79.9964,-392.746,0,0