File: Accelerated corrosion test data/2025-10-16_18-00-04/sample_4.csv
Frequency (Hz),Impedance (ohms),Phase (Radians),Temperature (C),Humidity (%)
10000.0,262.71,-11895.6,0,0
11301.625,234.052,-10538.4,0,0
12603.25,212.953,-9454.17,0,0
13904.875,193.24,-8572.23,0,0
15206.5,180.892,-7845.79,0,0
16508.125,190.459,-7229.91,0,0
17809.75,156.022,-6722.38,0,0
19111.375,144.878,-6264.39,0,0
20413.0,140.233,-5862.94,0,0
21714.625,146.177,-5517.45,0,0
23016.25,124.807,-5216.83,0,0
24317.875,116.373,-4931.36,0,0
25619.5,112.152,-4678.15,0,0
26921.1,105.702,-4447.83,0,0
28222.7,120.329,-4245.48,0,0
29524.4,111.956,-4064.9,0,0
30826,98.7168,-3892.57,0,0
32127.6,99.9903,-3731.72,0,0
33429.2,89.8842,-3591.22,0,0
34730.9,84.5838,-3452.63,0,0
36032.5,81.6261,-3324.81,0,0
37334.1,79.5295,-3205.83,0,0
38635.7,76.9526,-3093.65,0,0
39937.4,76.7835,-2987.5,0,0
41239,80.0514,-2893.33,0,0
42540.6,78.2904,-2804.63,0,0
43842.225,73.3806,-2721.48,0,0
45143.85,71.3822,-2640.2,0,0
46445.475,70.0104,-2562.61,0,0
47747.1,70.0533,-2492.81,0,0
49048.725,66.0828,-2423.37,0,0
50350.35,64.1717,-2355.95,0,0
51651.975,63.69,-2291.14,0,0
52953.6,65.2148,-2228.1,0,0
54255.225,73.6934,-2171.68,0,0
55556.85,71.9744,-2128.49,0,0
56858.475,65.5415,-2074.32,0,0
58160.1,66.5511,-2021.94,0,0
59461.7,70.7629,-1971.58,0,0
60763.3,79.7276,-1932.83,0,0
62065,70.0644,-1900.1,0,0
63366.6,64.2134,-1854.66,0,0
64668.2,64.4887,-1810.93,0,0
65969.8,66.397,-1770.25,0,0
67271.5,70.498,-1734.34,0,0
68573.1,73.8246,-1705.41,0,0
69874.7,66.214,-1675.07,0,0
71176.3,64.7364,-1640.69,0,0
72478,59.2957,-1609.26,0,0
73779.6,57.8146,-1572.94,0,0
75081.2,59.805,-1539.94,0,0
76382.825,62.2707,-1511.07,0,0
77684.45,65.0833,-1483.44,0,0
78986.075,63.7877,-1460.85,0,0
80287.7,60.7989,-1433.88,0,0
81589.325,60.2168,-1407.83,0,0
82890.95,58.9852,-1382.75,0,0
84192.575,57.8204,-1357.81,0,0
85494.2,57.0204,-1333.46,0,0
86795.825,56.3409,-1309.82,0,0
88097.45,55.0558,-1287.14,0,0
89399.075,53.5381,-1262.9,0,0
90700.7,53.3589,-1239.71,0,0
92002.3,53.717,-1216.51,0,0
93303.9,54.9033,-1195.56,0,0
94605.6,53.5362,-1175.17,0,0
95907.2,53.0402,-1152.54,0,0
97208.8,53.9127,-1130.79,0,0
98510.4,55.3038,-1109.18,0,0
99812.1,57.9376,-1088.38,0,0
101114,62.359,-1070.01,0,0
102415,61.4697,-1055.58,0,0
103717,58.5745,-1032.67,0,0
105019,62.4823,-1009.02,0,0
106320.175,69.212,-988.542,0,0
107621.8,76.2497,-970.76,0,0
108923.425,84.8732,-954.36,0,0
110225.05,93.0597,-942.058,0,0
111526.675,99.1041,-931.669,0,0
112828.3,103.851,-922.164,0,0
114129.925,106.747,-913.596,0,0
115431.55,108.323,-905.283,0,0
116733.175,107.605,-896.706,0,0
118034.8,105.221,-885.752,0,0
119336.425,105.987,-871.467,0,0
120638.05,111.19,-866.124,0,0
121939.675,104.236,-859.623,0,0
123241,99.5647,-847.17,0,0
124543,96.409,-834.386,0,0
125845,94.5159,-822.135,0,0
127146,91.1114,-810.904,0,0
128448,86.2788,-799.069,0,0
129749,79.817,-784.135,0,0
131051,75.14,-766.24,0,0
132353,72.7272,-747.486,0,0
133654,72.1076,-728.627,0,0
134956,72.8137,-709.798,0,0
136258,74.927,-691.323,0,0
137559,77.5647,-674.121,0,0
138860.775,79.463,-656.038,0,0
140162.4,82.8913,-637.079,0,0
141464.025,87.8846,-618.07,0,0
142765.65,93.8614,-599.669,0,0
144067.275,100.564,-581.324,0,0
145368.9,108.34,-562.514,0,0
146670.525,118.085,-543.885,0,0
147972.15,128.967,-525.9,0,0
149273.775,141.542,-508.007,0,0
150575.4,156.442,-489.956,0,0
151877.025,175.26,-473.565,0,0
153178.65,197.633,-461.755,0,0
154480,219.206,-456.769,0,0
155782,235.962,-453.119,0,0
157084,250.768,-450.554,0,0
158385,266.276,-444.856,0,0
159687,287.757,-442.634,0,0
160988,304.142,-450.813,0,0
162290,311.239,-455.659,0,0
163592,316.712,-455.293,0,0
164893,325.332,-449.564,0,0
166195,340.917,-442.219,0,0
167497,367.833,-441.984,0,0
168798,393.667,-457.976,0,0
170100,411.369,-487.06,0,0
171401.375,407.06,-525.026,0,0
172703.0,382.162,-550.566,0,0
174004.625,348.695,-555.436,0,0
175306.25,321.083,-543.889,0,0
176607.875,303.538,-521.77,0,0
177909.5,297.383,-498.375,0,0
179211.125,296.903,-477.196,0,0
180512.75,300.719,-458.474,0,0
181814.375,304.701,-441.893,0,0
183116.0,307.866,-424.473,0,0
184417.625,312.435,-403.254,0,0
185719.25,321.311,-379.431,0,0
187021,334.286,-354.086,0,0
188322,352.986,-327.043,0,0
189624,378.809,-299.636,0,0
190926,413.38,-274.016,0,0
192227,456.589,-252.752,0,0
193529,507.653,-239.867,0,0
194831,563.1,-236.45,0,0
196132,621.687,-240.748,0,0
197434,687.36,-255.162,0,0
198735,758.062,-287.684,0,0
200037,825.565,-346.157,0,0
201339,871.524,-427.573,0,0
202640.35,888.104,-514.576,0,0
203941.975,886.579,-595.599,0,0
205243.6,865.885,-669.137,0,0
206545.225,837.913,-731.265,0,0
207846.85,799.729,-793.621,0,0
209148.475,742.527,-838.192,0,0
210450.1,685.796,-859.194,0,0
211751.725,636.846,-865.465,0,0
213053.35,599.557,-863.746,0,0
214354.975,571.604,-857.075,0,0
215656.6,557.06,-858.026,0,0
216958.225,536.256,-866.568,0,0
218259.85,515.487,-871.359,0,0
219561,495.141,-877.227,0,0
220863,471.973,-883.582,0,0
222165,448.09,-886.639,0,0
223466,424.505,-887.633,0,0
224768,401.839,-889.184,0,0
226070,375.584,-889.842,0,0
227371,346.848,-885.839,0,0
228673,318.09,-875.502,0,0
229974,294.295,-859.18,0,0
231276,275.757,-841.283,0,0
232578,261.472,-823.299,0,0
233879,250.855,-805.781,0,0
235180.95,243.107,-789.615,0,0
236482.575,236.594,-775.311,0,0
237784.2,231.728,-760.542,0,0
239085.825,230.198,-747.851,0,0
240387.45,229.093,-738.473,0,0
241689.075,227.327,-731.138,0,0
242990.7,224.002,-725.313,0,0
244292.325,218.644,-719.452,0,0
245593.95,211.902,-711.384,0,0
246895.575,206.66,-701.393,0,0
248197.2,203.863,-691.485,0,0
249498.825,201.149,-682.68,0,0
250800,198.737,-674.821,0,0
252102,194.423,-667.498,0,0
253404,188.23,-656.997,0,0
254705,184.112,-643.379,0,0
256007,182.017,-626.632,0,0
257309,185.508,-607.773,0,0
258610,194.954,-589.992,0,0
259912,210.645,-575.94,0,0
261213,228.859,-566.915,0,0
262515,249.259,-564.427,0,0
263817,271.144,-568.68,0,0
265118,289.166,-581.95,0,0
266420,300.286,-599.322,0,0
267721.55,306.188,-619.697,0,0
269023.175,302.766,-643.203,0,0
270324.8,288.111,-658.642,0,0
271626.425,276.673,-665.991,0,0
272928.05,267.019,-674.134,0,0
274229.675,254.115,-682.653,0,0
275531.3,235.939,-688.694,0,0
276832.925,215.486,-687.633,0,0
278134.55,195.921,-677.616,0,0
279436.175,185.886,-661.091,0,0
280737.8,185.062,-649.564,0,0
282039.425,182.841,-642.826,0,0
283341,182.56,-635.654,0,0
284643,182.052,-633.214,0,0
285944,178.056,-631.229,0,0
287246,171.762,-625.841,0,0
288548,166.475,-616.32,0,0
289849,168.253,-602.538,0,0
291151,178.392,-593.865,0,0
292452,191.074,-594.07,0,0
293754,199.524,-603.382,0,0
295056,199.781,-616.097,0,0
296357,191.412,-626.883,0,0
297659,179.561,-630.574,0,0
298960.525,169.499,-629.898,0,0
300262.15,160.91,-628.227,0,0
301563.775,152.473,-625.327,0,0
302865.4,145.173,-621.151,0,0
304167.025,138.296,-616.204,0,0
305468.65,132.792,-610.06,0,0
306770.275,128.903,-603.824,0,0
308071.9,126.698,-598.252,0,0
309373.525,125.114,-594.425,0,0
310675.15,122.112,-591.606,0,0
311976.775,118.472,-587.587,0,0
313278.4,115.504,-583.017,0,0
314580,113.588,-578.427,0,0
315882,112.357,-574.667,0,0
317183,111.007,-571.831,0,0
318485,109.393,-569.745,0,0
319787,107.102,-568.667,0,0
321088,102.926,-567.863,0,0
322390,96.647,-565.905,0,0
323691,89.6898,-560.762,0,0
324993,85.1547,-553.547,0,0
326295,82.2692,-546.92,0,0
327596,79.5949,-540.189,0,0
328898,77.9261,-532.995,0,0
330200,77.7268,-525.857,0,0
331501.125,78.9854,-519.887,0,0
332802.75,80.556,-515.829,0,0
334104.375,80.6626,-513.128,0,0
335406.0,79.4184,-510.179,0,0
336707.625,77.2354,-506.007,0,0
338009.25,75.8148,-500.298,0,0
339310.875,75.4805,-494.04,0,0
340612.5,76.6764,-487.557,0,0
341914.125,79.8893,-481.747,0,0
343215.75,84.4278,-478.356,0,0
344517.375,88.0815,-477.606,0,0
345819.0,89.7584,-478.139,0,0
347121,89.6425,-478.635,0,0
348422,88.2329,-478.322,0,0
349724,86.2229,-476.939,0,0
351025,84.2044,-474.725,0,0
352327,82.2365,-471.481,0,0
353629,81.3089,-467.5,0,0
354930,81.5163,-464.269,0,0
356232,81.4037,-461.744,0,0
357534,80.8128,-459.385,0,0
358835,79.6858,-456.629,0,0
360137,78.6364,-453.117,0,0
361438,78.2644,-448.814,0,0
362740.1,78.9473,-444.958,0,0
364041.725,79.6692,-441.798,0,0
365343.35,79.8202,-438.709,0,0
366644.975,80.0161,-434.377,0,0
367946.6,81.7042,-429.712,0,0
369248.225,84.9034,-425.418,0,0
370549.85,89.1173,-422.37,0,0
371851.475,94.5379,-421.042,0,0
373153.1,99.4437,-422.851,0,0
374454.725,101.611,-426.593,0,0
375756.35,100.81,-429.221,0,0
377057.975,99.7205,-430.426,0,0
378359.6,98.6703,-431.11,0,0
379661,97.2485,-431.65,0,0
380963,95.4107,-431.532,0,0
382264,94.5781,-430.237,0,0
383566,95.2346,-431.055,0,0
384868,93.3088,-433.958,0,0
386169,88.3121,-435.381,0,0
387471,82.4971,-433.561,0,0
388773,78.5949,-429.093,0,0
390074,77.8919,-424.431,0,0
391376,78.9065,-422.673,0,0
392677,77.6594,-423.617,0,0
393979,73.3597,-423.257,0,0
395280.7,68.817,-420.267,0,0
396582.325,65.5675,-415.986,0,0
397883.95,63.1656,-411.553,0,0
399185.575,61.297,-406.841,0,0
400006.6,60.5147,-403.627,0,0