File: Accelerated corrosion test data/2025-10-16_18-00-04/sample_7.csv
Frequency (Hz),Impedance (ohms),Phase (Radians),Temperature (C),Humidity (%)
10000.0,272.913,-12077,0,0
11301.625,246.56,-10684.4,0,0
12603.25,256.01,-9633.46,0,0
13904.875,209.297,-8740.39,0,0
15206.5,194.413,-8005.14,0,0
16508.125,171.217,-7364.61,0,0
17809.75,170.564,-6810.88,0,0
19111.375,180.489,-6369.44,0,0
20413.0,168.148,-5974.88,0,0
21714.625,157.003,-5634.68,0,0
23016.25,130.25,-5312.04,0,0
24317.875,122.543,-5019.42,0,0
25619.5,118.555,-4755.57,0,0
26921.1,122.516,-4511.82,0,0
28222.7,177.407,-4300.47,0,0
29524.4,139.688,-4168.89,0,0
30826,132.548,-3984.86,0,0
32127.6,117.469,-3837.32,0,0
33429.2,101.582,-3686.53,0,0
34730.9,92.2017,-3541.94,0,0
36032.5,88.2408,-3408.5,0,0
37334.1,86.3,-3285.02,0,0
38635.7,86.6289,-3167.91,0,0
39937.4,98.2825,-3068.09,0,0
41239,86.9289,-2981.16,0,0
42540.6,80.2278,-2885.14,0,0
43842.225,79.0403,-2796.65,0,0
45143.85,80.3008,-2719,0,0
46445.475,77.2886,-2646.66,0,0
47747.1,70.7108,-2570.36,0,0
49048.725,68.0525,-2499.98,0,0
50350.35,66.1788,-2433.13,0,0
51651.975,64.5762,-2369.48,0,0
52953.6,63.7784,-2309.08,0,0
54255.225,62.3295,-2252.54,0,0
55556.85,60.8861,-2197.82,0,0
56858.475,60.2014,-2145.51,0,0
58160.1,59.2866,-2095.05,0,0
59461.7,59.5266,-2047.63,0,0
60763.3,59.0921,-2003.93,0,0
62065,57.0073,-1960.56,0,0
63366.6,55.6933,-1917.8,0,0
64668.2,54.9733,-1877.29,0,0
65969.8,55.0487,-1838.76,0,0
67271.5,53.3085,-1802.16,0,0
68573.1,52.051,-1765.43,0,0
69874.7,51.4824,-1730.12,0,0
71176.3,51.3406,-1696.5,0,0
72478,50.2787,-1664.36,0,0
73779.6,49.4316,-1632.54,0,0
75081.2,48.88,-1601.81,0,0
76382.825,48.3787,-1572.07,0,0
77684.45,48.1489,-1543.23,0,0
78986.075,47.7695,-1515.33,0,0
80287.7,47.6426,-1488.33,0,0
81589.325,47.3009,-1462,0,0
82890.95,47.0278,-1436.44,0,0
84192.575,47.0572,-1411.27,0,0
85494.2,47.2722,-1387.24,0,0
86795.825,47.2349,-1363.88,0,0
88097.45,47.4113,-1341.33,0,0
89399.075,47.0018,-1319.05,0,0
90700.7,47.1841,-1296.78,0,0
92002.3,47.5286,-1275.19,0,0
93303.9,48.1821,-1254.09,0,0
94605.6,49.9957,-1234.25,0,0
95907.2,49.989,-1216.31,0,0
97208.8,49.427,-1196.83,0,0
98510.4,50.2463,-1177.44,0,0
99812.1,49.7709,-1158.85,0,0
101114,51.4276,-1139.82,0,0
102415,53.0454,-1121.66,0,0
103717,55.803,-1105.1,0,0
105019,56.7131,-1090.01,0,0
106320.175,56.1201,-1073.78,0,0
107621.8,57.2416,-1057.53,0,0
108923.425,58.4084,-1041.31,0,0
110225.05,58.8868,-1024.71,0,0
111526.675,62.2822,-1007.93,0,0
112828.3,66.7349,-991.665,0,0
114129.925,72.0521,-977.87,0,0
115431.55,78.1611,-965.513,0,0
116733.175,86.0249,-957.304,0,0
118034.8,89.3128,-952.256,0,0
119336.425,91.601,-949.835,0,0
120638.05,84.4517,-949.2,0,0
121939.675,74.0009,-938.467,0,0
123241,66.8816,-925.531,0,0
124543,62.4823,-910.642,0,0
125845,58.638,-896.78,0,0
127146,55.383,-881.938,0,0
128448,53.7193,-867.167,0,0
129749,52.2678,-852.693,0,0
131051,50.9997,-838.216,0,0
132353,50.3619,-822.952,0,0
133654,50.8179,-807.384,0,0
134956,53.571,-792.662,0,0
136258,58.1306,-779.651,0,0
137559,58.7541,-772.127,0,0
138860.775,56.3044,-759.814,0,0
140162.4,56.5715,-745.916,0,0
141464.025,56.3616,-732.539,0,0
142765.65,57.5088,-718.016,0,0
144067.275,60.2024,-704.672,0,0
145368.9,61.7444,-692.266,0,0
146670.525,62.9233,-678.989,0,0
147972.15,64.5612,-665.634,0,0
149273.775,65.3316,-652.591,0,0
150575.4,65.8336,-636.901,0,0
151877.025,68.1365,-619.571,0,0
153178.65,72.643,-601.649,0,0
154480,78.8728,-583.602,0,0
155782,87.4631,-565.587,0,0
157084,98.6211,-548.738,0,0
158385,111.859,-535.12,0,0
159687,121.408,-525.782,0,0
160988,125.346,-511.253,0,0
162290,134.235,-487.04,0,0
163592,152.679,-461.64,0,0
164893,179.603,-440.975,0,0
166195,210.132,-419.271,0,0
167497,258.497,-402.485,0,0
168798,319.986,-406.509,0,0
170100,376.448,-440.962,0,0
171401.375,413.482,-496.947,0,0
172703.0,424.923,-564.145,0,0
174004.625,392.323,-627.074,0,0
175306.25,341.97,-640.206,0,0
176607.875,320.897,-627.77,0,0
177909.5,328.915,-627.192,0,0
179211.125,329.455,-664.575,0,0
180512.75,296.377,-685.595,0,0
181814.375,258.485,-698.091,0,0
183116.0,215.085,-688.665,0,0
184417.625,186.081,-666.348,0,0
185719.25,166.988,-643.518,0,0
187021,153.039,-616.414,0,0
188322,149.481,-591.692,0,0
189624,143.573,-573.914,0,0
190926,137.784,-551.437,0,0
192227,137.129,-527.361,0,0
193529,139.446,-502.694,0,0
194831,145.508,-478.454,0,0
196132,156.541,-457.519,0,0
197434,168.117,-439.48,0,0
198735,176.914,-422.603,0,0
200037,186.836,-401.599,0,0
201339,201.845,-378.486,0,0
202640.35,223.578,-353.672,0,0
203941.975,252.713,-332.838,0,0
205243.6,288.603,-314.591,0,0
206545.225,334.73,-310.786,0,0
207846.85,369.016,-318.087,0,0
209148.475,406.504,-314.311,0,0
210450.1,466.402,-327.57,0,0
211751.725,511.779,-376.501,0,0
213053.35,532.126,-430.276,0,0
214354.975,534.655,-476.929,0,0
215656.6,527.56,-517.845,0,0
216958.225,521.923,-555.634,0,0
218259.85,497.591,-592.198,0,0
219561,462.519,-615.808,0,0
220863,429.067,-615.651,0,0
222165,410.682,-604.676,0,0
223466,406.059,-596.715,0,0
224768,403.416,-593.807,0,0
226070,407.838,-586.773,0,0
227371,419.4,-591.574,0,0
228673,432.32,-605.368,0,0
229974,436.72,-628.314,0,0
231276,433.263,-659.011,0,0
232578,419.652,-687.598,0,0
233879,390.36,-716.967,0,0
235180.95,346.083,-727.575,0,0
236482.575,311.531,-715.78,0,0
237784.2,287.076,-705.859,0,0
239085.825,263.588,-686.555,0,0
240387.45,260.151,-666.219,0,0
241689.075,253.268,-661.168,0,0
242990.7,239.051,-649.829,0,0
244292.325,231.695,-630.523,0,0
245593.95,235.805,-616.81,0,0
246895.575,235.54,-609.06,0,0
248197.2,234.695,-598.796,0,0
249498.825,236.83,-587.584,0,0
250800,243.178,-577.175,0,0
252102,253.392,-570.308,0,0
253404,267.494,-571.165,0,0
254705,275.249,-581.439,0,0
256007,273.68,-592.299,0,0
257309,266.634,-598.336,0,0
258610,259.322,-598.311,0,0
259912,254.459,-597.991,0,0
261213,248.255,-593.648,0,0
262515,247.7,-585.536,0,0
263817,255.286,-582.899,0,0
265118,259.667,-588.893,0,0
266420,257.799,-593.37,0,0
267721.55,256.665,-597.977,0,0
269023.175,251.933,-600.928,0,0
270324.8,251.289,-599.324,0,0
271626.425,258.771,-602.565,0,0
272928.05,265.786,-623.855,0,0
274229.675,249.581,-652.15,0,0
275531.3,215.961,-666.918,0,0
276832.925,179.35,-660.295,0,0
278134.55,153.638,-638.936,0,0
279436.175,142.221,-615.402,0,0
280737.8,139.07,-595.21,0,0
282039.425,138.787,-582.217,0,0
283341,135.528,-569.075,0,0
284643,136.543,-553.213,0,0
285944,142.224,-540.964,0,0
287246,147.955,-533.475,0,0
288548,150.397,-527.072,0,0
289849,153.39,-518.283,0,0
291151,159.424,-509.123,0,0
292452,166.933,-502.875,0,0
293754,175.137,-497.642,0,0
295056,183.778,-493.403,0,0
296357,194.384,-490.4,0,0
297659,207.13,-489.866,0,0
298960.525,220.252,-493.585,0,0
300262.15,233.865,-500.559,0,0
301563.775,248.288,-513.114,0,0
302865.4,259.283,-537.228,0,0
304167.025,253.332,-565.773,0,0
305468.65,237.528,-585.792,0,0
306770.275,217.272,-598.402,0,0
308071.9,196.41,-602.99,0,0
309373.525,177.058,-601.329,0,0
310675.15,162.438,-595.099,0,0
311976.775,151.628,-588.994,0,0
313278.4,141.746,-582.969,0,0
314580,132.876,-575.271,0,0
315882,127.246,-566.449,0,0
317183,124.125,-559.346,0,0
318485,121.346,-553.647,0,0
319787,119.061,-548.433,0,0
321088,116.988,-544.43,0,0
322390,114.56,-540.759,0,0
323691,111.945,-537.41,0,0
324993,108.976,-533.613,0,0
326295,107.204,-530.057,0,0
327596,104.997,-527.73,0,0
328898,101.909,-525.397,0,0
330200,98.5318,-522.711,0,0
331501.125,94.8795,-520.144,0,0
332802.75,90.5368,-517.357,0,0
334104.375,85.4625,-513.621,0,0
335406.0,80.7525,-508.742,0,0
336707.625,76.3832,-503.051,0,0
338009.25,72.7363,-496.549,0,0
339310.875,69.9701,-490.016,0,0
340612.5,67.845,-483.215,0,0
341914.125,66.5762,-476.184,0,0
343215.75,66.3191,-469.401,0,0
344517.375,66.9995,-463.17,0,0
345819.0,68.0444,-458.133,0,0
347121,68.6305,-454.097,0,0
348422,68.2373,-450.181,0,0
349724,67.3804,-445.307,0,0
351025,66.9493,-439.779,0,0
352327,67.6326,-433.558,0,0
353629,69.8403,-428.161,0,0
354930,72.3501,-424.024,0,0
356232,74.7635,-421.386,0,0
357534,75.2945,-419.53,0,0
358835,74.4268,-416.301,0,0
360137,74.1914,-411.362,0,0
361438,75.2885,-405.99,0,0
362740.1,77.5994,-401.156,0,0
364041.725,80.2654,-396.884,0,0
365343.35,83.7952,-393.185,0,0
366644.975,87.3307,-391.109,0,0
367946.6,90.1495,-389.57,0,0
369248.225,92.6853,-388.597,0,0
370549.85,94.3538,-388.651,0,0
371851.475,93.5298,-388.208,0,0
373153.1,92.6845,-385.277,0,0
374454.725,93.3596,-381.616,0,0
375756.35,94.8343,-378.581,0,0
377057.975,96.0171,-376,0,0
378359.6,97.0966,-372.552,0,0
379661,99.2642,-368.985,0,0
380963,101.906,-366.122,0,0
382264,104.367,-363.409,0,0
383566,107.406,-360.726,0,0
384868,110.72,-358.615,0,0
386169,113.647,-356.97,0,0
387471,116.603,-355.085,0,0
388773,119.681,-352.625,0,0
390074,124.576,-350.498,0,0
391376,129.472,-349.998,0,0
392677,133.788,-350.01,0,0
393979,137.838,-349.936,0,0
395280.7,142.491,-349.304,0,0
396582.325,149.227,-349.145,0,0
397883.95,157.712,-351.692,0,0
399185.575,166.04,-358.35,0,0
400006.6,169.846,-364.953,0,0