File: Accelerated corrosion test data/2025-10-16_18-00-04/sample_3.csv
Frequency (Hz),Impedance (ohms),Phase (Radians),Temperature (C),Humidity (%)
10000.0,251.212,-11856.1,0,0
11301.625,223.575,-10501.7,0,0
12603.25,202.694,-9424.91,0,0
13904.875,185.211,-8546.85,0,0
15206.5,173.341,-7812.5,0,0
16508.125,161.305,-7214.69,0,0
17809.75,156.17,-6683.24,0,0
19111.375,146.533,-6230.2,0,0
20413.0,158.993,-5825.64,0,0
21714.625,138.421,-5503.56,0,0
23016.25,128.197,-5196.46,0,0
24317.875,119.419,-4915.45,0,0
25619.5,113.594,-4667.33,0,0
26921.1,108.683,-4435.56,0,0
28222.7,103.905,-4227.41,0,0
29524.4,108.705,-4049.66,0,0
30826,101.496,-3876.55,0,0
32127.6,101.732,-3711.02,0,0
33429.2,99.0376,-3586.04,0,0
34730.9,88.3328,-3447.45,0,0
36032.5,83.4239,-3318.74,0,0
37334.1,80.1932,-3200.18,0,0
38635.7,77.9542,-3089.69,0,0
39937.4,75.6338,-2986.78,0,0
41239,74.2906,-2889.03,0,0
42540.6,72.8653,-2798.73,0,0
43842.225,71.7936,-2712.9,0,0
45143.85,70.9293,-2632.82,0,0
46445.475,69.693,-2556.65,0,0
47747.1,69.9572,-2483.71,0,0
49048.725,68.5514,-2417.82,0,0
50350.35,66.5577,-2352.34,0,0
51651.975,66.0587,-2289.24,0,0
52953.6,66.4331,-2229.15,0,0
54255.225,69.3676,-2173.91,0,0
55556.85,66.6914,-2126.27,0,0
56858.475,61.7919,-2073.24,0,0
58160.1,61.137,-2020.89,0,0
59461.7,61.6391,-1971.29,0,0
60763.3,63.0085,-1924.58,0,0
62065,64.9912,-1879.37,0,0
63366.6,69.1274,-1835.47,0,0
64668.2,77.9801,-1793.59,0,0
65969.8,92.1636,-1768.22,0,0
67271.5,75.8817,-1742.61,0,0
68573.1,76.2348,-1704.98,0,0
69874.7,75.9968,-1675.56,0,0
71176.3,70.9049,-1644.91,0,0
72478,69.6446,-1612.04,0,0
73779.6,67.9923,-1583.58,0,0
75081.2,64.361,-1555.21,0,0
76382.825,60.817,-1525.81,0,0
77684.45,58.2059,-1496.74,0,0
78986.075,56.0149,-1468.06,0,0
80287.7,54.5055,-1439.9,0,0
81589.325,53.4044,-1412.57,0,0
82890.95,52.8898,-1385.97,0,0
84192.575,52.6208,-1360.15,0,0
85494.2,52.5771,-1334.98,0,0
86795.825,52.7228,-1310.55,0,0
88097.45,53.2264,-1286.56,0,0
89399.075,54.6138,-1262.71,0,0
90700.7,56.8209,-1240.93,0,0
92002.3,59.1138,-1220.27,0,0
93303.9,61.9024,-1201.27,0,0
94605.6,62.4463,-1186.65,0,0
95907.2,57.4514,-1168.51,0,0
97208.8,56.1268,-1147.18,0,0
98510.4,55.8801,-1127.39,0,0
99812.1,55.4358,-1108.24,0,0
101114,55.0845,-1088.31,0,0
102415,56.4857,-1067.73,0,0
103717,60.4302,-1050.02,0,0
105019,63.5164,-1035.71,0,0
106320.175,62.9985,-1021.74,0,0
107621.8,61.0261,-1006.07,0,0
108923.425,59.2461,-988.603,0,0
110225.05,59.3301,-969.945,0,0
111526.675,61.4413,-952.128,0,0
112828.3,63.7222,-935.961,0,0
114129.925,65.3044,-919.955,0,0
115431.55,67.4003,-903.018,0,0
116733.175,71.1243,-886.337,0,0
118034.8,77.1734,-870.285,0,0
119336.425,83.599,-858.263,0,0
120638.05,89.9087,-852.2,0,0
121939.675,86.7808,-843.791,0,0
123241,87.2622,-830.279,0,0
124543,88.9066,-818.864,0,0
125845,90.382,-808.439,0,0
127146,89.8613,-798.723,0,0
128448,88.2674,-787.901,0,0
129749,86.7922,-774.962,0,0
131051,87.8178,-762.067,0,0
132353,87.2196,-751.05,0,0
133654,86.3384,-739.329,0,0
134956,84.7487,-726.646,0,0
136258,83.1847,-713.204,0,0
137559,82.7792,-697.891,0,0
138860.775,84.0383,-684.051,0,0
140162.4,83.464,-670.699,0,0
141464.025,82.8738,-656.347,0,0
142765.65,82.1784,-640.261,0,0
144067.275,82.5344,-622.99,0,0
145368.9,84.2768,-604.791,0,0
146670.525,86.9367,-585.873,0,0
147972.15,91.2479,-565.852,0,0
149273.775,97.9097,-545.489,0,0
150575.4,108.56,-525.306,0,0
151877.025,121.413,-508.266,0,0
153178.65,133.778,-495.042,0,0
154480,143.704,-482.882,0,0
155782,151.971,-466.337,0,0
157084,163.947,-448.855,0,0
158385,180.56,-437.766,0,0
159687,184.406,-423.313,0,0
160988,200.105,-395.551,0,0
162290,226.558,-370.222,0,0
163592,260.84,-348.356,0,0
164893,310.737,-336.92,0,0
166195,362.164,-349.867,0,0
167497,401.885,-381.787,0,0
168798,423.168,-418.957,0,0
170100,420.952,-461.183,0,0
171401.375,405.268,-475.462,0,0
172703.0,402.541,-476.164,0,0
174004.625,410.405,-487.271,0,0
175306.25,412.116,-503.144,0,0
176607.875,410.954,-520.878,0,0
177909.5,388.98,-538.621,0,0
179211.125,366.655,-530.962,0,0
180512.75,362.152,-518.009,0,0
181814.375,367.109,-514.937,0,0
183116.0,360.448,-521.131,0,0
184417.625,344.739,-518.61,0,0
185719.25,331.054,-504.56,0,0
187021,327.307,-482.101,0,0
188322,333.788,-464.744,0,0
189624,338.04,-450.117,0,0
190926,348.182,-435.941,0,0
192227,356.418,-422.641,0,0
193529,367.673,-402.978,0,0
194831,391.702,-386.247,0,0
196132,424.538,-379.849,0,0
197434,447.562,-391.87,0,0
198735,461.642,-398.288,0,0
200037,471.328,-403.918,0,0
201339,477.369,-398.336,0,0
202640.35,498.12,-388.797,0,0
203941.975,528.191,-389.417,0,0
205243.6,556.001,-403.35,0,0
206545.225,568.254,-418.202,0,0
207846.85,588.837,-417.721,0,0
209148.475,621.661,-427.657,0,0
210450.1,654.152,-450.693,0,0
211751.725,680.243,-482.964,0,0
213053.35,701.302,-518,0,0
214354.975,715.687,-560.894,0,0
215656.6,722.367,-606.731,0,0
216958.225,718.604,-652.77,0,0
218259.85,706.182,-696.062,0,0
219561,688.185,-733.074,0,0
220863,668.307,-771.063,0,0
222165,639.28,-809.826,0,0
223466,592.38,-835.88,0,0
224768,551.902,-837.186,0,0
226070,531.158,-836.445,0,0
227371,513.008,-845.581,0,0
228673,487.261,-857.813,0,0
229974,460.433,-863.817,0,0
231276,432.268,-867.897,0,0
232578,404.527,-866.711,0,0
233879,379.482,-863.117,0,0
235180.95,356.344,-858.468,0,0
236482.575,331.822,-853.668,0,0
237784.2,307.095,-845.211,0,0
239085.825,283.193,-830.364,0,0
240387.45,265.987,-813.271,0,0
241689.075,251.275,-795.329,0,0
242990.7,242.811,-776.871,0,0
244292.325,238.329,-762.202,0,0
245593.95,232.848,-750.79,0,0
246895.575,227.626,-738.743,0,0
248197.2,223.495,-727.265,0,0
249498.825,222.756,-716.598,0,0
250800,220.302,-711.147,0,0
252102,213.575,-704.595,0,0
253404,205.563,-693.595,0,0
254705,200.946,-678.379,0,0
256007,201.694,-661.923,0,0
257309,209.193,-648.66,0,0
258610,216.373,-639.754,0,0
259912,228.111,-631.331,0,0
261213,244.278,-632.256,0,0
262515,253.864,-645.463,0,0
263817,251.24,-660.068,0,0
265118,240.197,-669.813,0,0
266420,225.859,-672.22,0,0
267721.55,212.227,-667.461,0,0
269023.175,203.181,-658.359,0,0
270324.8,197.9,-648.508,0,0
271626.425,196.75,-638.961,0,0
272928.05,196.639,-632.796,0,0
274229.675,196.393,-624.464,0,0
275531.3,200.581,-616.874,0,0
276832.925,208.066,-613.099,0,0
278134.55,215.452,-615.504,0,0
279436.175,218.818,-622.483,0,0
280737.8,216.06,-630.973,0,0
282039.425,208.813,-636.302,0,0
283341,199.538,-638.077,0,0
284643,190.132,-636.292,0,0
285944,181.754,-631.495,0,0
287246,176.14,-624.448,0,0
288548,174.387,-617.547,0,0
289849,173.862,-613.53,0,0
291151,172.732,-610.738,0,0
292452,170.031,-607.696,0,0
293754,168.74,-602.471,0,0
295056,170.742,-598.547,0,0
296357,173.662,-598.475,0,0
297659,174.116,-601.65,0,0
298960.525,170.921,-604.943,0,0
300262.15,165.737,-607.018,0,0
301563.775,159.148,-607.514,0,0
302865.4,152.115,-605.724,0,0
304167.025,145.879,-602.527,0,0
305468.65,140.315,-598.05,0,0
306770.275,136.395,-592.958,0,0
308071.9,133.872,-588.364,0,0
309373.525,131.706,-585.052,0,0
310675.15,128.951,-582.49,0,0
311976.775,124.748,-579.784,0,0
313278.4,120.102,-575.328,0,0
314580,116.464,-569.208,0,0
315882,115.218,-562.393,0,0
317183,115.932,-557.192,0,0
318485,116.372,-553.82,0,0
319787,116.348,-550.683,0,0
321088,116.669,-547.766,0,0
322390,117.624,-545.902,0,0
323691,118.152,-545.836,0,0
324993,116.88,-546.949,0,0
326295,113.398,-547.584,0,0
327596,109.026,-546.745,0,0
328898,104.429,-544.689,0,0
330200,100.275,-542.02,0,0
331501.125,95.9908,-538.992,0,0
332802.75,91.6557,-535.355,0,0
334104.375,87.2808,-530.831,0,0
335406.0,83.5329,-525.266,0,0
336707.625,80.7182,-519.269,0,0
338009.25,78.752,-512.887,0,0
339310.875,77.5578,-506.319,0,0
340612.5,77.7656,-499.515,0,0
341914.125,79.6792,-493.65,0,0
343215.75,82.5,-489.766,0,0
344517.375,84.3845,-487.861,0,0
345819.0,84.5844,-486.146,0,0
347121,84.3301,-484.003,0,0
348422,83.4975,-481.535,0,0
349724,82.8864,-477.934,0,0
351025,83.8938,-474.113,0,0
352327,85.749,-472.443,0,0
353629,85.9011,-472.13,0,0
354930,84.3478,-471.073,0,0
356232,82.7401,-469.096,0,0
357534,80.9065,-466.429,0,0
358835,79.8976,-462.819,0,0
360137,79.6967,-459.434,0,0
361438,79.6243,-456.671,0,0
362740.1,79.2673,-453.686,0,0
364041.725,80.0293,-450.367,0,0
365343.35,81.5564,-448.408,0,0
366644.975,81.9394,-448.207,0,0
367946.6,80.2978,-447.548,0,0
369248.225,77.7311,-445.102,0,0
370549.85,77.2145,-440.529,0,0
371851.475,78.9233,-437.905,0,0
373153.1,79.1932,-437.639,0,0
374454.725,77.2735,-436.434,0,0
375756.35,75.3758,-433.549,0,0
377057.975,74.6032,-429.797,0,0
378359.6,75.0066,-426.357,0,0
379661,75.8851,-423.601,0,0
380963,76.7627,-422.052,0,0
382264,76.7153,-420.61,0,0
383566,76.5705,-419.051,0,0
384868,75.7952,-417.784,0,0
386169,74.5521,-415.825,0,0
387471,73.1307,-413.342,0,0
388773,71.9291,-410.035,0,0
390074,71.4824,-405.977,0,0
391376,72.1317,-401.678,0,0
392677,74.2101,-397.993,0,0
393979,76.7068,-395.728,0,0
395280.7,78.9647,-394.458,0,0
396582.325,80.8707,-394.059,0,0
397883.95,81.9562,-394.449,0,0
399185.575,81.8098,-394.877,0,0
400006.6,81.3966,-394.965,0,0