File: Accelerated corrosion test data/2025-10-20_18-00-03/sample_3.csv
Frequency (Hz),Impedance (ohms),Phase (Radians),Temperature (C),Humidity (%)
10000.0,252.433,-11893.4,0,0
11301.625,225.164,-10534.8,0,0
12603.25,204.073,-9454.32,0,0
13904.875,187.067,-8573.59,0,0
15206.5,175.449,-7835.6,0,0
16508.125,161.953,-7237.22,0,0
17809.75,158.49,-6705.83,0,0
19111.375,146.554,-6249.74,0,0
20413.0,164.698,-5847.88,0,0
21714.625,139.984,-5521.05,0,0
23016.25,128.639,-5213.24,0,0
24317.875,120.837,-4931.85,0,0
25619.5,114.147,-4681.95,0,0
26921.1,109.613,-4449.64,0,0
28222.7,104.469,-4240.53,0,0
29524.4,110.297,-4063,0,0
30826,102.157,-3889.25,0,0
32127.6,102.401,-3722.36,0,0
33429.2,99.3471,-3598.99,0,0
34730.9,88.3529,-3459.06,0,0
36032.5,83.8485,-3330.44,0,0
37334.1,80.7316,-3211.08,0,0
38635.7,78.374,-3100.25,0,0
39937.4,76.0706,-2996.66,0,0
41239,74.6952,-2898.98,0,0
42540.6,73.5336,-2808.21,0,0
43842.225,72.2834,-2722.24,0,0
45143.85,71.3519,-2641.97,0,0
46445.475,69.8145,-2565.55,0,0
47747.1,70.7313,-2492.26,0,0
49048.725,68.7725,-2426.32,0,0
50350.35,66.9031,-2360.54,0,0
51651.975,66.5571,-2297.37,0,0
52953.6,66.6281,-2237.21,0,0
54255.225,69.3364,-2181.68,0,0
55556.85,67.1074,-2133.71,0,0
56858.475,61.8788,-2080.64,0,0
58160.1,61.375,-2028.07,0,0
59461.7,61.8084,-1978.35,0,0
60763.3,63.1124,-1931.27,0,0
62065,65.0761,-1886.14,0,0
63366.6,68.799,-1842.08,0,0
64668.2,77.6396,-1799.83,0,0
65969.8,92.7096,-1773.7,0,0
67271.5,75.7133,-1748.56,0,0
68573.1,76.1686,-1710.49,0,0
69874.7,76.9123,-1680.7,0,0
71176.3,71.5616,-1650.18,0,0
72478,70.6423,-1617.22,0,0
73779.6,69.2998,-1589.09,0,0
75081.2,65.5341,-1561.04,0,0
76382.825,61.7238,-1531.82,0,0
77684.45,58.9351,-1502.82,0,0
78986.075,56.4835,-1474.13,0,0
80287.7,54.7938,-1445.83,0,0
81589.325,53.7231,-1418.4,0,0
82890.95,53.1235,-1391.65,0,0
84192.575,52.7334,-1365.78,0,0
85494.2,52.6201,-1340.64,0,0
86795.825,52.6522,-1316.14,0,0
88097.45,53.1299,-1292.17,0,0
89399.075,54.3266,-1268.22,0,0
90700.7,56.4058,-1246.44,0,0
92002.3,58.3467,-1225.51,0,0
93303.9,60.9136,-1206.2,0,0
94605.6,61.697,-1191.27,0,0
95907.2,56.7195,-1172.98,0,0
97208.8,55.4916,-1151.49,0,0
98510.4,55.2803,-1131.35,0,0
99812.1,55.0824,-1112.04,0,0
101114,54.8973,-1092.19,0,0
102415,56.4242,-1071.65,0,0
103717,60.0383,-1053.87,0,0
105019,63.385,-1039.22,0,0
106320.175,63.386,-1025.32,0,0
107621.8,61.6417,-1009.84,0,0
108923.425,59.6862,-992.832,0,0
110225.05,59.5691,-974.442,0,0
111526.675,61.6434,-956.322,0,0
112828.3,63.7542,-940.366,0,0
114129.925,64.9738,-924.53,0,0
115431.55,66.6854,-907.505,0,0
116733.175,70.0957,-890.603,0,0
118034.8,75.967,-873.892,0,0
119336.425,82.8891,-861.188,0,0
120638.05,89.7836,-855.397,0,0
121939.675,85.9924,-846.969,0,0
123241,86.597,-832.889,0,0
124543,88.5624,-821.044,0,0
125845,90.6298,-810.349,0,0
127146,90.7286,-800.487,0,0
128448,89.7721,-790.485,0,0
129749,88.6578,-778.001,0,0
131051,89.7774,-766.068,0,0
132353,88.5198,-755.258,0,0
133654,87.3652,-743.527,0,0
134956,85.8479,-730.872,0,0
136258,84.2431,-717.654,0,0
137559,83.6054,-702.445,0,0
138860.775,85.0238,-688.951,0,0
140162.4,84.4312,-675.743,0,0
141464.025,83.3764,-661.977,0,0
142765.65,82.1827,-645.848,0,0
144067.275,82.3565,-628.534,0,0
145368.9,83.908,-610.574,0,0
146670.525,86.1783,-591.689,0,0
147972.15,90.3379,-571.979,0,0
149273.775,96.4068,-551.531,0,0
150575.4,106.413,-531.437,0,0
151877.025,118.65,-514.095,0,0
153178.65,130.492,-500.287,0,0
154480,140.558,-486.816,0,0
155782,149.92,-471.654,0,0
157084,161.544,-454.403,0,0
158385,176.735,-443.669,0,0
159687,181.645,-428.88,0,0
160988,194.696,-404.14,0,0
162290,217.158,-377.197,0,0
163592,249.97,-351.709,0,0
164893,298.435,-337.948,0,0
166195,350.954,-346.384,0,0
167497,392.931,-376.037,0,0
168798,415.126,-411.368,0,0
170100,416.555,-448.975,0,0
171401.375,408.404,-462.556,0,0
172703.0,409.197,-469.655,0,0
174004.625,415.421,-481.437,0,0
175306.25,421.593,-496.534,0,0
176607.875,422.541,-523.645,0,0
177909.5,394.116,-544.302,0,0
179211.125,368.648,-533.682,0,0
180512.75,365.807,-519.196,0,0
181814.375,371.639,-516.262,0,0
183116.0,368.063,-524.023,0,0
184417.625,355.076,-525.941,0,0
185719.25,337.845,-517.224,0,0
187021,329.349,-496.023,0,0
188322,330.505,-478.482,0,0
189624,332.949,-460.147,0,0
190926,342.57,-443.9,0,0
192227,350.624,-430.118,0,0
193529,362.464,-410.49,0,0
194831,383.384,-395.287,0,0
196132,412.257,-384.323,0,0
197434,439.339,-391.655,0,0
198735,453.456,-402.648,0,0
200037,459.451,-405.023,0,0
201339,468.105,-395.013,0,0
202640.35,492.416,-385.435,0,0
203941.975,522.28,-387.645,0,0
205243.6,547.699,-402.476,0,0
206545.225,560.342,-411.57,0,0
207846.85,583.921,-411.219,0,0
209148.475,619.426,-422.712,0,0
210450.1,650.364,-445.329,0,0
211751.725,677.89,-477.099,0,0
213053.35,700.6,-512.7,0,0
214354.975,713.742,-557.128,0,0
215656.6,718.96,-599.789,0,0
216958.225,718.328,-644.694,0,0
218259.85,706.326,-689.215,0,0
219561,689.317,-725.984,0,0
220863,672.184,-762.287,0,0
222165,645.247,-803.105,0,0
223466,599.902,-830.879,0,0
224768,559.461,-836.041,0,0
226070,535.19,-836.785,0,0
227371,516.932,-844.658,0,0
228673,491.248,-855.509,0,0
229974,465.966,-862.939,0,0
231276,436.994,-866.852,0,0
232578,410.155,-865.734,0,0
233879,385.678,-863.113,0,0
235180.95,363.05,-859.565,0,0
236482.575,338.155,-855.87,0,0
237784.2,313.366,-847.946,0,0
239085.825,290.241,-835.208,0,0
240387.45,270.736,-820.03,0,0
241689.075,254.023,-802.008,0,0
242990.7,244.767,-782.482,0,0
244292.325,239.04,-769.802,0,0
245593.95,231.135,-756.315,0,0
246895.575,226.01,-742.834,0,0
248197.2,221.6,-730.082,0,0
249498.825,221.514,-718.66,0,0
250800,219.717,-712.325,0,0
252102,214.349,-705.855,0,0
253404,207.529,-696.266,0,0
254705,201.984,-682.688,0,0
256007,200.939,-666.812,0,0
257309,206.126,-652.159,0,0
258610,214.187,-640.811,0,0
259912,226.476,-632.731,0,0
261213,243.417,-632.532,0,0
262515,253.691,-646.44,0,0
263817,251.509,-660.684,0,0
265118,242.313,-670.785,0,0
266420,228.143,-676.076,0,0
267721.55,212.715,-672.421,0,0
269023.175,201.953,-664.008,0,0
270324.8,195.203,-653.601,0,0
271626.425,192.882,-643.801,0,0
272928.05,191.148,-636.337,0,0
274229.675,190.169,-627.356,0,0
275531.3,192.71,-618.051,0,0
276832.925,199.508,-611.331,0,0
278134.55,207.566,-610.177,0,0
279436.175,213.94,-614.384,0,0
280737.8,215.193,-621.886,0,0
282039.425,211.121,-628.611,0,0
283341,203.693,-632.266,0,0
284643,195.584,-632.347,0,0
285944,188.002,-629.661,0,0
287246,182.407,-625.032,0,0
288548,178.783,-620.084,0,0
289849,177.879,-615.933,0,0
291151,176.013,-614.855,0,0
292452,171.621,-613.127,0,0
293754,167.796,-608.054,0,0
295056,167.637,-602.704,0,0
296357,169.46,-600.756,0,0
297659,169.809,-601.7,0,0
298960.525,167.789,-603.479,0,0
300262.15,163.7,-605.103,0,0
301563.775,157.877,-605.422,0,0
302865.4,151.367,-603.625,0,0
304167.025,145.584,-600.411,0,0
305468.65,140.6,-596.022,0,0
306770.275,136.784,-591.333,0,0
308071.9,134.081,-586.569,0,0
309373.525,132.343,-582.547,0,0
310675.15,130.751,-580.008,0,0
311976.775,127.496,-578.137,0,0
313278.4,122.748,-574.888,0,0
314580,118.513,-569.248,0,0
315882,116.818,-562.735,0,0
317183,116.931,-557.403,0,0
318485,117.213,-553.407,0,0
319787,117.466,-550.233,0,0
321088,117.441,-547.113,0,0
322390,118.74,-544.499,0,0
323691,120.289,-544.237,0,0
324993,119.582,-545.697,0,0
326295,116.546,-546.97,0,0
327596,112.082,-546.868,0,0
328898,107.26,-545.162,0,0
330200,103.035,-542.65,0,0
331501.125,98.7798,-539.902,0,0
332802.75,94.2417,-536.399,0,0
334104.375,89.9146,-532.164,0,0
335406.0,85.895,-527.017,0,0
336707.625,82.7932,-521.071,0,0
338009.25,80.6908,-514.956,0,0
339310.875,79.0185,-508.701,0,0
340612.5,78.4823,-501.841,0,0
341914.125,80.0365,-495.381,0,0
343215.75,82.8327,-490.999,0,0
344517.375,84.9736,-488.567,0,0
345819.0,85.7965,-487.271,0,0
347121,85.1216,-485.785,0,0
348422,83.6917,-483.023,0,0
349724,82.9771,-478.945,0,0
351025,84.0611,-475.03,0,0
352327,85.5648,-473.007,0,0
353629,86.1013,-472.16,0,0
354930,85.0936,-471.123,0,0
356232,83.5169,-469.335,0,0
357534,81.7309,-466.499,0,0
358835,80.9969,-462.876,0,0
360137,81.0527,-459.835,0,0
361438,80.7799,-457.437,0,0
362740.1,80.1069,-454.227,0,0
364041.725,80.7378,-450.754,0,0
365343.35,82.2566,-448.323,0,0
366644.975,83.4289,-447.857,0,0
367946.6,82.1142,-447.811,0,0
369248.225,79.4837,-445.538,0,0
370549.85,78.7782,-441.271,0,0
371851.475,80.3136,-438.692,0,0
373153.1,80.4888,-438.236,0,0
374454.725,78.7174,-436.898,0,0
375756.35,77.1119,-434.174,0,0
377057.975,76.3291,-430.713,0,0
378359.6,76.5094,-427.193,0,0
379661,77.6528,-424.635,0,0
380963,78.2572,-423.237,0,0
382264,78.1898,-421.693,0,0
383566,77.9887,-420.539,0,0
384868,76.7967,-419.193,0,0
386169,75.314,-417.023,0,0
387471,73.7741,-414.19,0,0
388773,72.6956,-410.49,0,0
390074,72.5484,-406.169,0,0
391376,73.8198,-401.907,0,0
392677,76.0942,-398.773,0,0
393979,78.2811,-396.694,0,0
395280.7,80.4074,-395.302,0,0
396582.325,82.3577,-394.699,0,0
397883.95,83.6416,-394.78,0,0
399185.575,84.2039,-395.465,0,0
400006.6,83.8834,-395.966,0,0