File: Accelerated corrosion test data/2025-10-20_18-00-03/sample_8.csv
Frequency (Hz),Impedance (ohms),Phase (Radians),Temperature (C),Humidity (%)
10000.0,305.75,-10978.9,0,0
11301.625,270.955,-9729.08,0,0
12603.25,249.892,-8737.04,0,0
13904.875,221.445,-7935.67,0,0
15206.5,201.704,-7261.43,0,0
16508.125,186.456,-6694.3,0,0
17809.75,173.091,-6206.66,0,0
19111.375,165.578,-5784.14,0,0
20413.0,159.286,-5422.94,0,0
21714.625,147.738,-5103.05,0,0
23016.25,142.544,-4819.5,0,0
24317.875,131.211,-4562.29,0,0
25619.5,124.135,-4329.55,0,0
26921.1,119.389,-4118.27,0,0
28222.7,116.621,-3928.23,0,0
29524.4,112.89,-3755.47,0,0
30826,108.561,-3597.9,0,0
32127.6,104.645,-3449.88,0,0
33429.2,104.452,-3312.88,0,0
34730.9,105.916,-3188.24,0,0
36032.5,109.186,-3077.96,0,0
37334.1,105.256,-2978.57,0,0
38635.7,94.8398,-2881.74,0,0
39937.4,87.5084,-2784.42,0,0
41239,84.62,-2694.1,0,0
42540.6,81.4789,-2608.98,0,0
43842.225,80.5006,-2531.61,0,0
45143.85,76.6119,-2456.84,0,0
46445.475,73.6518,-2385.83,0,0
47747.1,71.9751,-2318.44,0,0
49048.725,69.7604,-2254.6,0,0
50350.35,68.032,-2193.86,0,0
51651.975,66.9105,-2135.66,0,0
52953.6,66.5547,-2080.86,0,0
54255.225,65.583,-2030.81,0,0
55556.85,62.675,-1981.48,0,0
56858.475,60.5791,-1932.58,0,0
58160.1,59.6583,-1886.14,0,0
59461.7,58.6932,-1842.3,0,0
60763.3,57.593,-1799.47,0,0
62065,57.0681,-1758.6,0,0
63366.6,57.6986,-1719.24,0,0
64668.2,57.5576,-1683.05,0,0
65969.8,56.6778,-1647.84,0,0
67271.5,55.0797,-1613.1,0,0
68573.1,54.061,-1579.33,0,0
69874.7,53.9827,-1546.11,0,0
71176.3,53.9164,-1514.89,0,0
72478,53.662,-1485.25,0,0
73779.6,52.8694,-1455.89,0,0
75081.2,52.031,-1427.24,0,0
76382.825,51.7478,-1399.26,0,0
77684.45,51.2817,-1372.53,0,0
78986.075,50.6101,-1346.18,0,0
80287.7,50.0493,-1320,0,0
81589.325,50.2722,-1294.15,0,0
82890.95,51.091,-1269.33,0,0
84192.575,52.6051,-1245.95,0,0
85494.2,51.7014,-1223.82,0,0
86795.825,51.8092,-1200.09,0,0
88097.45,52.5775,-1177.47,0,0
89399.075,53.3055,-1154.82,0,0
90700.7,55.7694,-1131.89,0,0
92002.3,59.5125,-1112.52,0,0
93303.9,61.3675,-1092.5,0,0
94605.6,63.7307,-1074.32,0,0
95907.2,65.4077,-1054.9,0,0
97208.8,68.8712,-1035.53,0,0
98510.4,73.8975,-1017.44,0,0
99812.1,78.71,-1002.5,0,0
101114,83.8557,-988.771,0,0
102415,86.6627,-977.927,0,0
103717,86.8651,-966.074,0,0
105019,85.6083,-954.157,0,0
106320.175,85.0779,-939.593,0,0
107621.8,85.0606,-926.224,0,0
108923.425,84.989,-911.259,0,0
110225.05,86.7447,-898.135,0,0
111526.675,87.418,-885.477,0,0
112828.3,88.1959,-873.651,0,0
114129.925,87.9127,-861.795,0,0
115431.55,87.9765,-850.144,0,0
116733.175,86.1997,-837.906,0,0
118034.8,85.7899,-825.083,0,0
119336.425,85.5657,-812.955,0,0
120638.05,84.4663,-800.504,0,0
121939.675,84.0287,-788.065,0,0
123241,83.2743,-775.697,0,0
124543,82.1636,-763.197,0,0
125845,80.8945,-750.047,0,0
127146,80.206,-736.165,0,0
128448,80.2157,-722.173,0,0
129749,80.1022,-708.635,0,0
131051,81.2019,-694.018,0,0
132353,82.3459,-680.893,0,0
133654,83.1108,-667.597,0,0
134956,84.3715,-653.363,0,0
136258,86.8066,-640.43,0,0
137559,86.6635,-627.852,0,0
138860.775,86.6494,-612.16,0,0
140162.4,88.8413,-596.325,0,0
141464.025,91.2391,-580.445,0,0
142765.65,93.9959,-563.435,0,0
144067.275,98.8471,-545.714,0,0
145368.9,105.694,-527.206,0,0
146670.525,114.789,-509.594,0,0
147972.15,124.227,-494.322,0,0
149273.775,135.441,-474.954,0,0
150575.4,154.445,-456.148,0,0
151877.025,181.191,-448.292,0,0
153178.65,199.625,-451.576,0,0
154480,209.375,-453.778,0,0
155782,223.402,-455.372,0,0
157084,221.155,-465.246,0,0
158385,220.517,-455.196,0,0
159687,227.8,-453.674,0,0
160988,220.945,-450.209,0,0
162290,226.583,-433.313,0,0
163592,237.587,-430.872,0,0
164893,242.098,-428.999,0,0
166195,241.198,-432.211,0,0
167497,229.944,-426.928,0,0
168798,220.488,-411.792,0,0
170100,215.465,-389.167,0,0
171401.375,216.307,-364.128,0,0
172703.0,224.557,-336.237,0,0
174004.625,237.724,-311.931,0,0
175306.25,248.661,-289.748,0,0
176607.875,265.213,-260.444,0,0
177909.5,284.68,-231.271,0,0
179211.125,317.523,-198.45,0,0
180512.75,360.438,-173.146,0,0
181814.375,408.565,-153.713,0,0
183116.0,466.981,-153.516,0,0
184417.625,507.676,-160.442,0,0
185719.25,558.897,-166.048,0,0
187021,604.547,-184.614,0,0
188322,643.542,-204.858,0,0
189624,678.259,-226.717,0,0
190926,716.264,-241.957,0,0
192227,758.356,-270.306,0,0
193529,804.457,-284.542,0,0
194831,879.776,-326.179,0,0
196132,947.867,-406.481,0,0
197434,985.655,-523.578,0,0
198735,969.202,-653.743,0,0
200037,902.538,-759.857,0,0
201339,823.246,-816.037,0,0
202640.35,736.886,-856.681,0,0
203941.975,659.831,-850.747,0,0
205243.6,602.334,-837.574,0,0
206545.225,561.666,-805.166,0,0
207846.85,551.259,-776.923,0,0
209148.475,548.025,-765.109,0,0
210450.1,547.497,-753.687,0,0
211751.725,558.258,-752.939,0,0
213053.35,565.95,-768.273,0,0
214354.975,563.539,-788.558,0,0
215656.6,556.814,-811.179,0,0
216958.225,540.128,-835.549,0,0
218259.85,517.132,-855.728,0,0
219561,487.875,-871.044,0,0
220863,455.005,-876.875,0,0
222165,427.201,-872.957,0,0
223466,405.992,-864.85,0,0
224768,393.292,-859.619,0,0
226070,382.882,-861.331,0,0
227371,365.948,-867.316,0,0
228673,345.708,-867.554,0,0
229974,327.707,-870.161,0,0
231276,303.429,-872.352,0,0
232578,276.127,-868.522,0,0
233879,247.75,-858.633,0,0
235180.95,222.795,-840.228,0,0
236482.575,205.907,-818.515,0,0
237784.2,194.723,-797.513,0,0
239085.825,188.673,-776.351,0,0
240387.45,188.594,-760.826,0,0
241689.075,187.723,-751.89,0,0
242990.7,181.496,-743.172,0,0
244292.325,175.588,-731.788,0,0
245593.95,171.723,-719.743,0,0
246895.575,170.818,-708.172,0,0
248197.2,169.298,-699.082,0,0
249498.825,167.593,-689.77,0,0
250800,167.156,-679.981,0,0
252102,169.143,-671.365,0,0
253404,171.763,-666.669,0,0
254705,170.363,-664.38,0,0
256007,165.671,-659.817,0,0
257309,160.54,-651.264,0,0
258610,159.176,-639.439,0,0
259912,162.472,-628.845,0,0
261213,166.552,-621.598,0,0
262515,170.103,-615.931,0,0
263817,172.725,-608.929,0,0
265118,177.095,-600.226,0,0
266420,187.002,-590.161,0,0
267721.55,204.722,-585.139,0,0
269023.175,224.224,-590.831,0,0
270324.8,241.344,-604.871,0,0
271626.425,250.866,-629.447,0,0
272928.05,248.565,-657.903,0,0
274229.675,229.51,-684.779,0,0
275531.3,201.173,-696.528,0,0
276832.925,175.021,-696.258,0,0
278134.55,153.261,-688.894,0,0
279436.175,136.605,-676.634,0,0
280737.8,127.337,-662.23,0,0
282039.425,123.334,-650.839,0,0
283341,120.919,-642.646,0,0
284643,118.283,-634.905,0,0
285944,118.36,-627.405,0,0
287246,121.884,-623.662,0,0
288548,123.023,-627.7,0,0
289849,115.616,-632.672,0,0
291151,104.732,-631.612,0,0
292452,94.5279,-627.572,0,0
293754,85.2599,-620.823,0,0
295056,77.7154,-612.19,0,0
296357,72.6748,-603.037,0,0
297659,68.7831,-594.441,0,0
298960.525,65.6993,-585.579,0,0
300262.15,63.8957,-576.611,0,0
301563.775,63.5391,-567.869,0,0
302865.4,64.7078,-560.216,0,0
304167.025,66.5226,-553.987,0,0
305468.65,68.5319,-549.015,0,0
306770.275,70.2993,-545.382,0,0
308071.9,71.7049,-542.557,0,0
309373.525,71.9795,-541.103,0,0
310675.15,70.8639,-538.76,0,0
311976.775,70.0684,-536.17,0,0
313278.4,68.7782,-533.87,0,0
314580,67.0016,-531.23,0,0
315882,65.0563,-527.981,0,0
317183,63.6089,-524.243,0,0
318485,62.4218,-520.737,0,0
319787,61.618,-516.907,0,0
321088,61.3528,-514.049,0,0
322390,60.677,-511.692,0,0
323691,59.2717,-509.622,0,0
324993,57.0616,-507.176,0,0
326295,54.8354,-503.844,0,0
327596,52.9866,-500.274,0,0
328898,51.2435,-496.766,0,0
330200,49.5063,-492.902,0,0
331501.125,47.9394,-488.735,0,0
332802.75,46.7771,-484.277,0,0
334104.375,46.1156,-479.727,0,0
335406.0,46.2946,-475.567,0,0
336707.625,46.5982,-472.32,0,0
338009.25,46.4022,-469.497,0,0
339310.875,45.7577,-466.702,0,0
340612.5,44.7161,-463.753,0,0
341914.125,43.5629,-460.302,0,0
343215.75,42.5658,-456.477,0,0
344517.375,41.8605,-452.399,0,0
345819.0,41.6237,-448.184,0,0
347121,41.7672,-444.071,0,0
348422,42.1452,-440.126,0,0
349724,42.8194,-436.339,0,0
351025,43.8581,-432.756,0,0
352327,45.0474,-429.646,0,0
353629,46.223,-426.969,0,0
354930,47.1302,-424.45,0,0
356232,48.0937,-422.255,0,0
357534,48.7793,-420.143,0,0
358835,49.3187,-418.141,0,0
360137,49.858,-416.02,0,0
361438,50.3126,-413.993,0,0
362740.1,50.7584,-412.198,0,0
364041.725,50.953,-410.35,0,0
365343.35,51.1562,-408.546,0,0
366644.975,51.2378,-406.622,0,0
367946.6,51.2674,-404.57,0,0
369248.225,51.4967,-402.36,0,0
370549.85,52.4195,-400.238,0,0
371851.475,53.3255,-399.049,0,0
373153.1,53.6197,-398.387,0,0
374454.725,53.0972,-397.748,0,0
375756.35,51.9278,-396.39,0,0
377057.975,51.2232,-394.386,0,0
378359.6,50.696,-392.835,0,0
379661,49.5113,-390.717,0,0
380963,49.4317,-387.768,0,0
382264,50.2215,-386.271,0,0
383566,49.6927,-385.525,0,0
384868,48.3437,-384.308,0,0
386169,46.6753,-382.31,0,0
387471,45.2037,-379.579,0,0
388773,44.1791,-376.4,0,0
390074,43.7995,-373.184,0,0
391376,43.6819,-370.259,0,0
392677,43.5715,-367.457,0,0
393979,43.4563,-364.681,0,0
395280.7,43.4891,-361.718,0,0
396582.325,43.7736,-358.779,0,0
397883.95,44.2084,-356.08,0,0
399185.575,44.5996,-353.483,0,0
400006.6,44.8341,-351.838,0,0