File: Accelerated corrosion test data/2025-10-20_18-00-03/sample_7.csv
Frequency (Hz),Impedance (ohms),Phase (Radians),Temperature (C),Humidity (%)
10000.0,273.469,-12102.5,0,0
11301.625,246.279,-10705,0,0
12603.25,261.872,-9661.59,0,0
13904.875,207.696,-8761.72,0,0
15206.5,197.32,-8019.28,0,0
16508.125,171.108,-7379.42,0,0
17809.75,166.585,-6824.65,0,0
19111.375,183.644,-6386.64,0,0
20413.0,171.059,-5982.04,0,0
21714.625,157.518,-5646.88,0,0
23016.25,129.46,-5322.92,0,0
24317.875,121.769,-5029.5,0,0
25619.5,117.663,-4764.71,0,0
26921.1,119.673,-4519.54,0,0
28222.7,177.282,-4293.45,0,0
29524.4,140.766,-4184.24,0,0
30826,130.896,-3992.27,0,0
32127.6,117.867,-3844.29,0,0
33429.2,101.074,-3694.78,0,0
34730.9,91.4784,-3549.25,0,0
36032.5,87.8626,-3415.17,0,0
37334.1,85.5619,-3291.32,0,0
38635.7,86.1336,-3173.85,0,0
39937.4,99.9684,-3073.92,0,0
41239,86.9439,-2988.39,0,0
42540.6,79.0084,-2892.04,0,0
43842.225,78.2125,-2802.52,0,0
45143.85,80.0607,-2725.27,0,0
46445.475,76.9891,-2652.04,0,0
47747.1,69.7669,-2575.68,0,0
49048.725,67.4742,-2505.34,0,0
50350.35,65.4377,-2438.07,0,0
51651.975,64.022,-2374.44,0,0
52953.6,63.2355,-2313.89,0,0
54255.225,61.7833,-2257.47,0,0
55556.85,60.3276,-2202.6,0,0
56858.475,59.4882,-2149.98,0,0
58160.1,58.585,-2099.75,0,0
59461.7,58.7931,-2052.31,0,0
60763.3,58.3126,-2008.11,0,0
62065,56.2888,-1964.85,0,0
63366.6,55.1517,-1922.1,0,0
64668.2,54.3836,-1881.29,0,0
65969.8,54.4382,-1842.9,0,0
67271.5,52.7177,-1806.05,0,0
68573.1,51.5196,-1769.26,0,0
69874.7,50.8802,-1733.95,0,0
71176.3,50.6807,-1700.26,0,0
72478,49.6968,-1668.01,0,0
73779.6,48.8205,-1636.21,0,0
75081.2,48.2424,-1605.38,0,0
76382.825,47.7539,-1575.67,0,0
77684.45,47.5121,-1546.69,0,0
78986.075,47.1337,-1518.82,0,0
80287.7,47.0074,-1491.78,0,0
81589.325,46.6343,-1465.62,0,0
82890.95,46.3592,-1439.79,0,0
84192.575,46.3841,-1414.79,0,0
85494.2,46.6652,-1390.73,0,0
86795.825,46.6233,-1367.44,0,0
88097.45,46.6617,-1344.73,0,0
89399.075,46.0587,-1322.47,0,0
90700.7,46.0798,-1300.1,0,0
92002.3,46.3339,-1278.43,0,0
93303.9,46.7813,-1256.5,0,0
94605.6,50.7046,-1236.9,0,0
95907.2,49.1565,-1220.06,0,0
97208.8,48.4472,-1199.74,0,0
98510.4,49.2175,-1180.59,0,0
99812.1,48.8505,-1162.14,0,0
101114,50.1438,-1142.7,0,0
102415,52.0635,-1124.64,0,0
103717,54.8178,-1107.85,0,0
105019,55.8981,-1092.87,0,0
106320.175,55.0761,-1077.13,0,0
107621.8,55.9125,-1060.31,0,0
108923.425,57.0915,-1043.95,0,0
110225.05,57.6854,-1027.14,0,0
111526.675,60.8155,-1009.95,0,0
112828.3,65.3628,-993.322,0,0
114129.925,70.9696,-979.474,0,0
115431.55,77.8454,-966.913,0,0
116733.175,86.3972,-958.225,0,0
118034.8,91.1237,-954.396,0,0
119336.425,93.2707,-952.688,0,0
120638.05,86.1701,-953.113,0,0
121939.675,74.5353,-943.007,0,0
123241,67.0198,-930.214,0,0
124543,62.1589,-915.303,0,0
125845,57.905,-901.727,0,0
127146,54.1654,-886.755,0,0
128448,52.4611,-871.36,0,0
129749,50.8793,-856.863,0,0
131051,49.7442,-842.52,0,0
132353,48.5688,-827.21,0,0
133654,49.1279,-811.394,0,0
134956,52.0952,-796.705,0,0
136258,56.5012,-784.711,0,0
137559,56.0249,-776.837,0,0
138860.775,53.6761,-764.144,0,0
140162.4,53.4253,-749.824,0,0
141464.025,53.4761,-736.464,0,0
142765.65,54.5215,-721.872,0,0
144067.275,57.3241,-708.114,0,0
145368.9,59.2931,-696.403,0,0
146670.525,60.3281,-683.211,0,0
147972.15,61.6912,-670.57,0,0
149273.775,62.0645,-657.741,0,0
150575.4,61.8455,-642.542,0,0
151877.025,63.1915,-625.064,0,0
153178.65,66.8897,-606.908,0,0
154480,72.3485,-588.631,0,0
155782,80.3697,-569.891,0,0
157084,91.0174,-552.528,0,0
158385,104.308,-538.202,0,0
159687,114.36,-529.148,0,0
160988,117.802,-515.254,0,0
162290,124.455,-492.136,0,0
163592,139.916,-467.029,0,0
164893,163.231,-444.661,0,0
166195,189.13,-419.766,0,0
167497,233.312,-395.776,0,0
168798,294.587,-388.982,0,0
170100,357.95,-411.497,0,0
171401.375,412.552,-459.988,0,0
172703.0,440.119,-532.912,0,0
174004.625,420.348,-610.384,0,0
175306.25,363.179,-641.797,0,0
176607.875,332.53,-632.317,0,0
177909.5,331.792,-628.724,0,0
179211.125,341.205,-660.141,0,0
180512.75,305.86,-687.926,0,0
181814.375,267.628,-700.19,0,0
183116.0,223.577,-697.208,0,0
184417.625,190.941,-673.917,0,0
185719.25,170.825,-650.938,0,0
187021,154.506,-623.829,0,0
188322,149.719,-598.212,0,0
189624,143.301,-580.295,0,0
190926,136.41,-557.166,0,0
192227,135.42,-532.118,0,0
193529,137.422,-506.667,0,0
194831,144.157,-482.685,0,0
196132,154.776,-461.59,0,0
197434,166.747,-443.524,0,0
198735,176.241,-428.096,0,0
200037,184.967,-408.856,0,0
201339,198.478,-386.416,0,0
202640.35,217.83,-362.062,0,0
203941.975,244.555,-341.523,0,0
205243.6,276.634,-323.247,0,0
206545.225,318.838,-315.303,0,0
207846.85,352.217,-318.295,0,0
209148.475,387.698,-311.232,0,0
210450.1,446.8,-316.206,0,0
211751.725,498.585,-359.054,0,0
213053.35,523.238,-408.05,0,0
214354.975,538.168,-452.724,0,0
215656.6,539.806,-501.092,0,0
216958.225,536.471,-545.695,0,0
218259.85,513.7,-590.751,0,0
219561,473.5,-621.441,0,0
220863,434.318,-620.953,0,0
222165,414.035,-610.736,0,0
223466,407.278,-602.439,0,0
224768,403.179,-599.107,0,0
226070,403.858,-592.091,0,0
227371,414.437,-594.235,0,0
228673,425.242,-604.954,0,0
229974,430.291,-625.811,0,0
231276,429.734,-652.247,0,0
232578,419.304,-678.084,0,0
233879,397.197,-710.844,0,0
235180.95,353.392,-725.988,0,0
236482.575,316.463,-717.351,0,0
237784.2,290.646,-707.279,0,0
239085.825,268.713,-687.036,0,0
240387.45,265.817,-669.634,0,0
241689.075,256.79,-667.378,0,0
242990.7,239.065,-656.471,0,0
244292.325,232.415,-635.604,0,0
245593.95,237.261,-623.27,0,0
246895.575,234.604,-618.475,0,0
248197.2,229.323,-608.754,0,0
249498.825,227.597,-595.797,0,0
250800,231.211,-582.103,0,0
252102,240.341,-570.893,0,0
253404,254.852,-566.53,0,0
254705,266.669,-573.1,0,0
256007,269.985,-583.312,0,0
257309,265.758,-591.157,0,0
258610,259.198,-592.179,0,0
259912,256.632,-592.866,0,0
261213,251.176,-591.245,0,0
262515,249.37,-585.485,0,0
263817,255.574,-582.366,0,0
265118,259.865,-587.98,0,0
266420,260.056,-593.335,0,0
267721.55,258.281,-600.814,0,0
269023.175,250.553,-606.266,0,0
270324.8,244.876,-604.462,0,0
271626.425,248.766,-602.883,0,0
272928.05,257.9,-617.152,0,0
274229.675,247.043,-644.402,0,0
275531.3,217.177,-660.963,0,0
276832.925,180.872,-657.497,0,0
278134.55,153.833,-637.938,0,0
279436.175,141.096,-614.049,0,0
280737.8,137.385,-593.653,0,0
282039.425,136.944,-580.061,0,0
283341,133.856,-566.191,0,0
284643,135.226,-549.604,0,0
285944,142.359,-536.883,0,0
287246,149.508,-530.181,0,0
288548,152.276,-526.484,0,0
289849,152.892,-518.928,0,0
291151,156.795,-508.737,0,0
292452,163.628,-501.134,0,0
293754,171.578,-494.319,0,0
295056,180.258,-488.865,0,0
296357,191.311,-484.13,0,0
297659,204.951,-481.874,0,0
298960.525,220.031,-483.651,0,0
300262.15,236.864,-489.244,0,0
301563.775,255.285,-502.117,0,0
302865.4,270.397,-528.352,0,0
304167.025,267.054,-561.582,0,0
305468.65,251.177,-585.784,0,0
306770.275,229.986,-602.576,0,0
308071.9,206.378,-610.146,0,0
309373.525,183.936,-610.308,0,0
310675.15,166.077,-604.253,0,0
311976.775,152.911,-597.581,0,0
313278.4,141.487,-590.862,0,0
314580,130.899,-582.599,0,0
315882,123.378,-572.513,0,0
317183,119.326,-563.396,0,0
318485,116.318,-555.917,0,0
319787,114.342,-549.113,0,0
321088,113.025,-543.912,0,0
322390,111.31,-539.453,0,0
323691,109.651,-535.439,0,0
324993,107.733,-531.665,0,0
326295,106.583,-527.756,0,0
327596,105.767,-525.568,0,0
328898,103.395,-524.26,0,0
330200,100.29,-522.53,0,0
331501.125,96.6145,-520.856,0,0
332802.75,91.6709,-518.683,0,0
334104.375,86.1527,-515.185,0,0
335406.0,81.0975,-510.41,0,0
336707.625,76.3716,-504.975,0,0
338009.25,72.3232,-498.565,0,0
339310.875,69.354,-491.929,0,0
340612.5,66.9226,-485.355,0,0
341914.125,65.1077,-478.355,0,0
343215.75,64.3729,-471.303,0,0
344517.375,64.7219,-464.686,0,0
345819.0,65.8846,-459.237,0,0
347121,66.536,-455.398,0,0
348422,65.7691,-451.644,0,0
349724,64.513,-446.55,0,0
351025,63.8027,-440.905,0,0
352327,64.0899,-434.368,0,0
353629,66.0303,-428.428,0,0
354930,68.6018,-423.944,0,0
356232,70.9903,-420.943,0,0
357534,71.6674,-418.978,0,0
358835,70.5158,-415.781,0,0
360137,69.7757,-410.588,0,0
361438,70.4499,-404.658,0,0
362740.1,72.629,-398.914,0,0
364041.725,75.5227,-393.926,0,0
365343.35,79.1898,-389.763,0,0
366644.975,82.8755,-387.044,0,0
367946.6,86.0513,-384.598,0,0
369248.225,89.3575,-382.921,0,0
370549.85,91.9844,-382.55,0,0
371851.475,92.3437,-382.223,0,0
373153.1,92.1475,-379.758,0,0
374454.725,93.2129,-376.449,0,0
375756.35,95.1195,-373.744,0,0
377057.975,96.6333,-371.76,0,0
378359.6,97.5057,-368.955,0,0
379661,99.3309,-365.578,0,0
380963,101.631,-362.734,0,0
382264,104.057,-359.879,0,0
383566,106.916,-357.377,0,0
384868,109.597,-355.091,0,0
386169,112.281,-352.986,0,0
387471,115.035,-350.604,0,0
388773,117.823,-347.583,0,0
390074,122.589,-344.429,0,0
391376,127.897,-342.748,0,0
392677,133.182,-341.837,0,0
393979,137.956,-341.521,0,0
395280.7,142.974,-340.186,0,0
396582.325,150.014,-338.756,0,0
397883.95,160.011,-338.981,0,0
399185.575,172.146,-343.666,0,0
400006.6,179.634,-350.353,0,0