File: Accelerated corrosion test data/2025-10-20_18-00-03/sample_2.csv
Frequency (Hz),Impedance (ohms),Phase (Radians),Temperature (C),Humidity (%)
10000.0,223.191,-11487.6,0,0
11301.625,198.621,-10173.7,0,0
12603.25,179.16,-9133.63,0,0
13904.875,184.765,-8283.08,0,0
15206.5,160.777,-7590.76,0,0
16508.125,140.061,-6991.84,0,0
17809.75,129.948,-6480.67,0,0
19111.375,125.847,-6039.46,0,0
20413.0,115.699,-5653.52,0,0
21714.625,126.3,-5324.72,0,0
23016.25,110.497,-5026.13,0,0
24317.875,100.949,-4758.97,0,0
25619.5,95.7522,-4513.69,0,0
26921.1,93.0755,-4294.16,0,0
28222.7,88.6337,-4093.82,0,0
29524.4,92.5803,-3908.99,0,0
30826,86.4465,-3754.47,0,0
32127.6,80.5711,-3599.51,0,0
33429.2,78.419,-3461.01,0,0
34730.9,74.5024,-3329.42,0,0
36032.5,71.9673,-3207.51,0,0
37334.1,69.9276,-3093.24,0,0
38635.7,67.799,-2987.65,0,0
39937.4,65.9963,-2888.44,0,0
41239,64.5584,-2795,0,0
42540.6,63.5679,-2708.09,0,0
43842.225,62.1068,-2625.66,0,0
45143.85,60.898,-2547.76,0,0
46445.475,60.3013,-2475,0,0
47747.1,59.6587,-2404.93,0,0
49048.725,59.8156,-2341.21,0,0
50350.35,57.1428,-2278.66,0,0
51651.975,55.7878,-2219.31,0,0
52953.6,54.2711,-2161.59,0,0
54255.225,53.5736,-2106.67,0,0
55556.85,53.2602,-2054.35,0,0
56858.475,53.2094,-2004.51,0,0
58160.1,53.4256,-1956.96,0,0
59461.7,53.9872,-1910.76,0,0
60763.3,55.6945,-1868.05,0,0
62065,58.4497,-1829.75,0,0
63366.6,55.097,-1792.18,0,0
64668.2,52.5123,-1754.46,0,0
65969.8,50.3178,-1715.14,0,0
67271.5,50.7421,-1677.54,0,0
68573.1,52.8988,-1643.39,0,0
69874.7,55.2687,-1612.83,0,0
71176.3,52.218,-1584.77,0,0
72478,47.3119,-1554.2,0,0
73779.6,44.5536,-1520.95,0,0
75081.2,44.7501,-1488.52,0,0
76382.825,46.5372,-1458.13,0,0
77684.45,49.3252,-1429.8,0,0
78986.075,52.5149,-1405.48,0,0
80287.7,51.3123,-1383.81,0,0
81589.325,48.6913,-1358.75,0,0
82890.95,47.5338,-1332.84,0,0
84192.575,48.3153,-1308.15,0,0
85494.2,48.7815,-1284.52,0,0
86795.825,49.7626,-1262.2,0,0
88097.45,50.2395,-1240.73,0,0
89399.075,50.8897,-1219.53,0,0
90700.7,50.4803,-1198.89,0,0
92002.3,52.3774,-1177.42,0,0
93303.9,54.9346,-1158.87,0,0
94605.6,54.8501,-1142.34,0,0
95907.2,53.7934,-1122.58,0,0
97208.8,57.1746,-1105.63,0,0
98510.4,56.5353,-1091.49,0,0
99812.1,52.5671,-1075.99,0,0
101114,49.9637,-1059,0,0
102415,46.7034,-1038.77,0,0
103717,45.6824,-1017.62,0,0
105019,49.0131,-997.556,0,0
106320.175,53.4289,-980.054,0,0
107621.8,57.4597,-968.489,0,0
108923.425,55.886,-956.486,0,0
110225.05,52.2813,-941.437,0,0
111526.675,50.9526,-923.441,0,0
112828.3,51.1573,-906.02,0,0
114129.925,52.5381,-888.698,0,0
115431.55,55.0892,-872.064,0,0
116733.175,58.1169,-856.218,0,0
118034.8,62.1218,-841.459,0,0
119336.425,66.1764,-828.497,0,0
120638.05,69.3567,-817.712,0,0
121939.675,69.3605,-806.86,0,0
123241,69.0523,-793.963,0,0
124543,69.2467,-781.004,0,0
125845,68.9709,-766.863,0,0
127146,69.8647,-751.577,0,0
128448,72.5667,-736.833,0,0
129749,75.9132,-723.073,0,0
131051,79.8527,-710.737,0,0
132353,81.7365,-699.381,0,0
133654,83.1232,-687.087,0,0
134956,83.614,-674.15,0,0
136258,84.9217,-659.534,0,0
137559,87.3893,-644.682,0,0
138860.775,89.5962,-630.297,0,0
140162.4,91.5622,-613.784,0,0
141464.025,96.6395,-594.971,0,0
142765.65,105.244,-578.53,0,0
144067.275,113.371,-562.498,0,0
145368.9,122.977,-546.385,0,0
146670.525,133.812,-530.529,0,0
147972.15,147.461,-513.592,0,0
149273.775,167.51,-496.794,0,0
150575.4,194.806,-488.116,0,0
151877.025,221.342,-492.797,0,0
153178.65,237.007,-506.334,0,0
154480,241.536,-518.364,0,0
155782,242.827,-524.403,0,0
157084,240.727,-529.242,0,0
158385,236.606,-529.268,0,0
159687,232.783,-524.176,0,0
160988,234.118,-517.472,0,0
162290,243.504,-517.197,0,0
163592,238.038,-525.702,0,0
164893,224.528,-525.067,0,0
166195,210.755,-513.101,0,0
167497,201.389,-498.102,0,0
168798,195.104,-476.242,0,0
170100,195.151,-453.785,0,0
171401.375,198.278,-431.412,0,0
172703.0,205.748,-408.227,0,0
174004.625,216.009,-385.416,0,0
175306.25,231.702,-361.744,0,0
176607.875,253.308,-341.698,0,0
177909.5,280.362,-330.292,0,0
179211.125,302.264,-326.113,0,0
180512.75,313.269,-326.193,0,0
181814.375,319.053,-312.922,0,0
183116.0,332.082,-293.504,0,0
184417.625,354.717,-270.174,0,0
185719.25,384.607,-252.853,0,0
187021,417.566,-237.238,0,0
188322,457.765,-226.958,0,0
189624,494.454,-221.302,0,0
190926,538.664,-210.755,0,0
192227,596.853,-206.683,0,0
193529,666.911,-218.184,0,0
194831,735.269,-254.501,0,0
196132,792.112,-306.655,0,0
197434,840.626,-367.935,0,0
198735,876.619,-444.935,0,0
200037,893.966,-528.008,0,0
201339,890.738,-616.166,0,0
202640.35,862.845,-694.426,0,0
203941.975,821.658,-758.749,0,0
205243.6,777.062,-814.075,0,0
206545.225,718.677,-850.593,0,0
207846.85,662.907,-868.173,0,0
209148.475,625.328,-877.485,0,0
210450.1,585.424,-896.298,0,0
211751.725,534.992,-906.439,0,0
213053.35,489.947,-898.544,0,0
214354.975,453.971,-886.541,0,0
215656.6,423.793,-872.06,0,0
216958.225,400.498,-854.505,0,0
218259.85,383.939,-838.347,0,0
219561,371.505,-823.523,0,0
220863,361.656,-810.304,0,0
222165,356.923,-799.038,0,0
223466,352.897,-792.31,0,0
224768,348.879,-786.585,0,0
226070,345.93,-782.495,0,0
227371,344.784,-780.831,0,0
228673,344.566,-784.563,0,0
229974,338.354,-792.62,0,0
231276,327.735,-799.457,0,0
232578,314.033,-805.119,0,0
233879,297.785,-807.791,0,0
235180.95,281.181,-807.354,0,0
236482.575,264.944,-805.043,0,0
237784.2,248.118,-800.639,0,0
239085.825,233.093,-793.917,0,0
240387.45,218.556,-785.855,0,0
241689.075,205.846,-775.789,0,0
242990.7,196.418,-764.702,0,0
244292.325,189.707,-756.016,0,0
245593.95,182.954,-750.508,0,0
246895.575,172.124,-746.986,0,0
248197.2,157.634,-738.94,0,0
249498.825,144.197,-727.272,0,0
250800,132.553,-711.935,0,0
252102,125.006,-694.11,0,0
253404,121.638,-677.062,0,0
254705,119.976,-661.119,0,0
256007,120.454,-645.108,0,0
257309,123.736,-630.522,0,0
258610,128.629,-617.711,0,0
259912,135.09,-606.59,0,0
261213,142.687,-597.906,0,0
262515,150.506,-591.862,0,0
263817,157.681,-587.664,0,0
265118,164.647,-584.963,0,0
266420,170.383,-584.422,0,0
267721.55,174.906,-584.505,0,0
269023.175,177.504,-586.058,0,0
270324.8,177.282,-585.401,0,0
271626.425,178.408,-582.449,0,0
272928.05,181.484,-577.816,0,0
274229.675,189.919,-573.911,0,0
275531.3,202.54,-576.713,0,0
276832.925,212.075,-589.494,0,0
278134.55,211.655,-605.514,0,0
279436.175,204.121,-618.284,0,0
280737.8,193.137,-626.512,0,0
282039.425,181.809,-632.056,0,0
283341,166.677,-634.472,0,0
284643,154.07,-631.014,0,0
285944,140.909,-627.784,0,0
287246,126.28,-618.452,0,0
288548,116.291,-601.513,0,0
289849,117.492,-581.815,0,0
291151,127.628,-568.199,0,0
292452,142.719,-564.594,0,0
293754,150.889,-573.24,0,0
295056,148.426,-577.964,0,0
296357,151.092,-577.228,0,0
297659,154.47,-587.982,0,0
298960.525,145.216,-597.161,0,0
300262.15,134.006,-598.97,0,0
301563.775,125.611,-596.278,0,0
302865.4,120.47,-593.797,0,0
304167.025,115.257,-593.467,0,0
305468.65,107.991,-593.188,0,0
306770.275,99.4125,-590.574,0,0
308071.9,91.7498,-586.181,0,0
309373.525,84.7688,-580.764,0,0
310675.15,78.8536,-574.638,0,0
311976.775,73.8985,-568.086,0,0
313278.4,69.777,-561.411,0,0
314580,66.4082,-554.706,0,0
315882,63.6775,-548.215,0,0
317183,61.3684,-541.699,0,0
318485,59.7025,-535.287,0,0
319787,58.401,-529.362,0,0
321088,57.1097,-523.54,0,0
322390,56.0422,-517.44,0,0
323691,55.3826,-511.221,0,0
324993,55.4279,-504.382,0,0
326295,57.591,-497.85,0,0
327596,60.9409,-493.566,0,0
328898,63.2476,-490.84,0,0
330200,65.3723,-488.73,0,0
331501.125,66.8483,-487.931,0,0
332802.75,66.6511,-488.123,0,0
334104.375,64.4459,-487.265,0,0
335406.0,62.0123,-485.015,0,0
336707.625,59.8122,-481.979,0,0
338009.25,57.913,-478.391,0,0
339310.875,56.3797,-474.565,0,0
340612.5,55.1005,-470.47,0,0
341914.125,54.1129,-466.14,0,0
343215.75,53.5418,-461.639,0,0
344517.375,53.5547,-456.969,0,0
345819.0,54.074,-452.435,0,0
347121,55.0718,-448.317,0,0
348422,56.4121,-444.37,0,0
349724,58.1252,-440.924,0,0
351025,60.0891,-438.039,0,0
352327,61.7773,-435.998,0,0
353629,62.8124,-433.964,0,0
354930,64.0141,-431.601,0,0
356232,65.4145,-429.408,0,0
357534,67.2321,-427.546,0,0
358835,69.157,-426.335,0,0
360137,70.8273,-425.975,0,0
361438,71.7404,-426.097,0,0
362740.1,71.8533,-426.201,0,0
364041.725,71.5022,-426.065,0,0
365343.35,70.7462,-425.485,0,0
366644.975,69.9662,-424.427,0,0
367946.6,69.6362,-423.059,0,0
369248.225,70.0311,-422.186,0,0
370549.85,69.6653,-422.371,0,0
371851.475,68.3549,-421.882,0,0
373153.1,67.431,-421.103,0,0
374454.725,66.1731,-420.634,0,0
375756.35,64.4788,-419.894,0,0
377057.975,62.7931,-418.715,0,0
378359.6,61.1337,-417.801,0,0
379661,58.1518,-416.752,0,0
380963,55.4501,-413.213,0,0
382264,55.384,-410.455,0,0
383566,54.2583,-409.344,0,0
384868,51.9899,-407.595,0,0
386169,49.7456,-404.947,0,0
387471,47.9818,-401.698,0,0
388773,46.6093,-398.155,0,0
390074,46.1229,-394.426,0,0
391376,46.4258,-391.702,0,0
392677,45.7848,-390.074,0,0
393979,43.9788,-387.7,0,0
395280.7,42.1775,-384.165,0,0
396582.325,41.2856,-379.942,0,0
397883.95,41.2465,-375.695,0,0
399185.575,41.7476,-371.867,0,0
400006.6,42.2573,-369.613,0,0