File: Accelerated corrosion test data/2025-10-20_18-00-03/sample_1.csv
Frequency (Hz),Impedance (ohms),Phase (Radians),Temperature (C),Humidity (%)
10000.0,239.724,-12219.6,0,0
11301.625,213.247,-10823.1,0,0
12603.25,194.003,-9721.31,0,0
13904.875,182.259,-8795.72,0,0
15206.5,190.916,-8065.66,0,0
16508.125,154.315,-7438.91,0,0
17809.75,144.871,-6900.69,0,0
19111.375,134.499,-6431.94,0,0
20413.0,157.74,-5987.17,0,0
21714.625,136.298,-5671.06,0,0
23016.25,121.357,-5369.15,0,0
24317.875,112.594,-5076.23,0,0
25619.5,104.487,-4810.95,0,0
26921.1,114.649,-4560.62,0,0
28222.7,110.67,-4358.03,0,0
29524.4,107.164,-4193.13,0,0
30826,100.766,-4003.81,0,0
32127.6,96.7755,-3847.93,0,0
33429.2,88.5044,-3702.28,0,0
34730.9,81.9865,-3560.59,0,0
36032.5,77.5884,-3429.46,0,0
37334.1,75.2197,-3307.02,0,0
38635.7,72.5087,-3193.34,0,0
39937.4,70.9127,-3086.35,0,0
41239,72.2833,-2987.45,0,0
42540.6,70.6938,-2895.03,0,0
43842.225,67.4902,-2808.13,0,0
45143.85,68.159,-2726.37,0,0
46445.475,64.8255,-2649.47,0,0
47747.1,64.0915,-2576.17,0,0
49048.725,61.4753,-2505.88,0,0
50350.35,59.3943,-2439.33,0,0
51651.975,58.341,-2375.84,0,0
52953.6,57.6182,-2314.7,0,0
54255.225,56.412,-2257.68,0,0
55556.85,55.4511,-2202.21,0,0
56858.475,54.6718,-2149,0,0
58160.1,54.3153,-2098.49,0,0
59461.7,54.0717,-2050.48,0,0
60763.3,54.2056,-2004.46,0,0
62065,52.7244,-1960.42,0,0
63366.6,52.262,-1916.77,0,0
64668.2,52.7802,-1874.65,0,0
65969.8,54.8021,-1836.93,0,0
67271.5,53.3625,-1800.35,0,0
68573.1,52.7677,-1764.53,0,0
69874.7,51.98,-1730.34,0,0
71176.3,50.0249,-1696,0,0
72478,48.232,-1662.16,0,0
73779.6,47.9171,-1628.83,0,0
75081.2,48.2366,-1596.56,0,0
76382.825,48.9565,-1565.47,0,0
77684.45,50.0235,-1536.04,0,0
78986.075,51.6374,-1508.42,0,0
80287.7,50.738,-1482.03,0,0
81589.325,50.2352,-1454.12,0,0
82890.95,50.7593,-1427.36,0,0
84192.575,52.1982,-1401.05,0,0
85494.2,54.3642,-1376.35,0,0
86795.825,55.2984,-1353.15,0,0
88097.45,55.7853,-1329.63,0,0
89399.075,57.5671,-1305.05,0,0
90700.7,60.9084,-1281.78,0,0
92002.3,66.905,-1260.32,0,0
93303.9,74.3983,-1243.17,0,0
94605.6,73.6177,-1236.23,0,0
95907.2,66.9132,-1217.51,0,0
97208.8,64.9615,-1197.13,0,0
98510.4,64.4788,-1176.81,0,0
99812.1,63.3925,-1157.31,0,0
101114,62.9588,-1137.13,0,0
102415,63.3674,-1115.45,0,0
103717,67.9206,-1094.33,0,0
105019,74.5937,-1077.06,0,0
106320.175,80.5865,-1060.71,0,0
107621.8,86.8543,-1047.77,0,0
108923.425,91.1159,-1036.39,0,0
110225.05,93.7915,-1027.8,0,0
111526.675,93.9362,-1014.97,0,0
112828.3,97.395,-1005.41,0,0
114129.925,96.6955,-998.038,0,0
115431.55,93.5201,-989.451,0,0
116733.175,88.7182,-978.106,0,0
118034.8,83.6217,-964.162,0,0
119336.425,81.5705,-948.533,0,0
120638.05,81.8333,-934.158,0,0
121939.675,80.1496,-921.386,0,0
123241,78.6533,-906.595,0,0
124543,78.6378,-891.604,0,0
125845,79.2397,-876.748,0,0
127146,80.4248,-862.281,0,0
128448,82.4174,-847.604,0,0
129749,84.8954,-833.428,0,0
131051,89.4799,-820.117,0,0
132353,93.8196,-809.149,0,0
133654,96.9684,-798.339,0,0
134956,100.486,-787.68,0,0
136258,103.459,-777.278,0,0
137559,108.735,-767.64,0,0
138860.775,111.187,-761.804,0,0
140162.4,110.81,-754.273,0,0
141464.025,109.977,-744.301,0,0
142765.65,110.273,-733.112,0,0
144067.275,112.004,-721.746,0,0
145368.9,113.938,-710.809,0,0
146670.525,117.331,-700.528,0,0
147972.15,119.507,-692.128,0,0
149273.775,120.848,-681.531,0,0
150575.4,122.793,-673.235,0,0
151877.025,121.319,-662.426,0,0
153178.65,120.788,-647.468,0,0
154480,124.322,-631.147,0,0
155782,130.854,-614.212,0,0
157084,142.518,-599.105,0,0
158385,154.917,-589.429,0,0
159687,163.466,-577.656,0,0
160988,181.887,-566.202,0,0
162290,200.32,-565.159,0,0
163592,211.542,-566.152,0,0
164893,225.135,-565.879,0,0
166195,239.632,-571.614,0,0
167497,248.149,-582.269,0,0
168798,248.705,-595.507,0,0
170100,240.806,-604.288,0,0
171401.375,232.022,-602.728,0,0
172703.0,229.29,-598.622,0,0
174004.625,226.048,-595.883,0,0
175306.25,224.294,-592.647,0,0
176607.875,222.171,-591.194,0,0
177909.5,218.812,-587.828,0,0
179211.125,214.046,-585.554,0,0
180512.75,206.761,-581.084,0,0
181814.375,199.954,-573.076,0,0
183116.0,193.361,-561.672,0,0
184417.625,188.853,-549.1,0,0
185719.25,186.603,-534.164,0,0
187021,186.561,-518.83,0,0
188322,189.916,-502.977,0,0
189624,193.593,-489.161,0,0
190926,196.791,-474.135,0,0
192227,202.128,-456.761,0,0
193529,211.051,-439.198,0,0
194831,221.906,-422.912,0,0
196132,235.165,-405.731,0,0
197434,251.233,-390.352,0,0
198735,268.158,-376.138,0,0
200037,286.756,-359.632,0,0
201339,311.052,-343.232,0,0
202640.35,343.289,-325.747,0,0
203941.975,386.55,-316.056,0,0
205243.6,437.476,-322.029,0,0
206545.225,483.3,-346.356,0,0
207846.85,514.98,-382.297,0,0
209148.475,534.353,-421.827,0,0
210450.1,534.996,-463.356,0,0
211751.725,521.318,-484.327,0,0
213053.35,518.066,-485.079,0,0
214354.975,533.171,-492.613,0,0
215656.6,544.002,-509.199,0,0
216958.225,553.079,-525.237,0,0
218259.85,562.371,-541.329,0,0
219561,576.167,-556.337,0,0
220863,595.33,-580.275,0,0
222165,612.728,-615.742,0,0
223466,618.24,-661.932,0,0
224768,611.458,-710.046,0,0
226070,592.279,-755.647,0,0
227371,562.524,-796.719,0,0
228673,523.558,-829.061,0,0
229974,479.307,-848.625,0,0
231276,436.167,-855.368,0,0
232578,399.136,-852.343,0,0
233879,371.705,-845.97,0,0
235180.95,348.462,-842.879,0,0
236482.575,324.174,-839,0,0
237784.2,300.572,-834.14,0,0
239085.825,277.069,-825.24,0,0
240387.45,257.411,-814.208,0,0
241689.075,240.573,-802.585,0,0
242990.7,225.792,-790.423,0,0
244292.325,213.984,-778.971,0,0
245593.95,201.707,-769.089,0,0
246895.575,189.729,-757.888,0,0
248197.2,179.186,-745.483,0,0
249498.825,170.449,-732.785,0,0
250800,163.423,-720.307,0,0
252102,157.391,-708.425,0,0
253404,151.557,-696.436,0,0
254705,147.554,-683.524,0,0
256007,145.218,-671.787,0,0
257309,143.375,-660.329,0,0
258610,142.458,-648.611,0,0
259912,144.086,-636.773,0,0
261213,148.001,-627.103,0,0
262515,152.562,-619.715,0,0
263817,157.588,-613.91,0,0
265118,163.519,-610.038,0,0
266420,170.1,-610.013,0,0
267721.55,174.197,-615.261,0,0
269023.175,171.028,-622.83,0,0
270324.8,160.986,-626.014,0,0
271626.425,150.116,-622.242,0,0
272928.05,142.698,-613.956,0,0
274229.675,138.991,-605.047,0,0
275531.3,137.881,-596.752,0,0
276832.925,138.629,-589.658,0,0
278134.55,140.293,-584.83,0,0
279436.175,140.77,-581.818,0,0
280737.8,140.437,-578.236,0,0
282039.425,140.61,-575.681,0,0
283341,138.731,-573.044,0,0
284643,137.509,-569.824,0,0
285944,135.465,-566.795,0,0
287246,132.186,-562.276,0,0
288548,130.069,-554.975,0,0
289849,132.503,-547.648,0,0
291151,135.211,-544.649,0,0
292452,135.456,-542.096,0,0
293754,134.779,-538.313,0,0
295056,134.769,-532.867,0,0
296357,136.483,-526.778,0,0
297659,140.317,-521.001,0,0
298960.525,145.605,-516.823,0,0
300262.15,151.579,-514.709,0,0
301563.775,157.422,-513.84,0,0
302865.4,163.634,-515.115,0,0
304167.025,168.144,-517.923,0,0
305468.65,172.268,-521.356,0,0
306770.275,176.201,-526.181,0,0
308071.9,177.608,-533.513,0,0
309373.525,176.283,-540.255,0,0
310675.15,173.922,-546.15,0,0
311976.775,169.886,-552.36,0,0
313278.4,163.559,-556.96,0,0
314580,157.393,-559.496,0,0
315882,151.319,-562.248,0,0
317183,143.621,-564.294,0,0
318485,135.324,-564.481,0,0
319787,126.968,-562.88,0,0
321088,118.998,-559.755,0,0
322390,111.91,-554.888,0,0
323691,106.877,-548.631,0,0
324993,104.133,-542.835,0,0
326295,102.61,-538.026,0,0
327596,101.655,-534.82,0,0
328898,100.156,-532.651,0,0
330200,98.0077,-530.99,0,0
331501.125,95.252,-529.262,0,0
332802.75,92.076,-527.44,0,0
334104.375,88.1868,-525.401,0,0
335406.0,84.0894,-522.296,0,0
336707.625,80.4844,-518.624,0,0
338009.25,77.2827,-514.522,0,0
339310.875,74.5431,-510.386,0,0
340612.5,72.2567,-506.302,0,0
341914.125,69.9547,-502.455,0,0
343215.75,67.7281,-498.493,0,0
344517.375,65.5933,-494.451,0,0
345819.0,63.4984,-490.33,0,0
347121,61.4584,-485.902,0,0
348422,60.0333,-481.164,0,0
349724,59.0072,-476.614,0,0
351025,58.098,-472.187,0,0
352327,57.5779,-467.808,0,0
353629,57.1145,-463.721,0,0
354930,56.7302,-459.684,0,0
356232,56.518,-455.752,0,0
357534,56.2936,-451.961,0,0
358835,56.0515,-448.047,0,0
360137,56.2059,-444.111,0,0
361438,56.4573,-440.464,0,0
362740.1,56.6505,-436.835,0,0
364041.725,56.9919,-433.074,0,0
365343.35,57.5932,-429.454,0,0
366644.975,58.2056,-426.13,0,0
367946.6,58.449,-422.423,0,0
369248.225,59.2742,-418.107,0,0
370549.85,61.0509,-413.854,0,0
371851.475,63.7403,-409.99,0,0
373153.1,67.0696,-407.334,0,0
374454.725,70.1646,-405.672,0,0
375756.35,72.8403,-404.711,0,0
377057.975,75.1293,-404.139,0,0
378359.6,77.0627,-403.903,0,0
379661,78.5017,-403.779,0,0
380963,80.2527,-403.431,0,0
382264,82.2204,-404.391,0,0
383566,83.1476,-406.385,0,0
384868,82.2713,-408.622,0,0
386169,80.1256,-410.071,0,0
387471,77.373,-410.363,0,0
388773,74.512,-409.468,0,0
390074,72.4264,-407.724,0,0
391376,70.9024,-406.239,0,0
392677,69.0888,-405.156,0,0
393979,66.6973,-403.656,0,0
395280.7,64.2356,-401.412,0,0
396582.325,61.8995,-398.477,0,0
397883.95,60.2113,-394.937,0,0
399185.575,59.2169,-391.261,0,0
400006.6,58.888,-389.127,0,0