File: Accelerated corrosion test data/2025-10-20_18-00-03/sample_4.csv
Frequency (Hz),Impedance (ohms),Phase (Radians),Temperature (C),Humidity (%)
10000.0,261.604,-11930.2,0,0
11301.625,232.96,-10568.8,0,0
12603.25,212.28,-9481.81,0,0
13904.875,192.509,-8595.41,0,0
15206.5,179.334,-7866.05,0,0
16508.125,196.086,-7258.76,0,0
17809.75,154.326,-6741.23,0,0
19111.375,144.311,-6282.06,0,0
20413.0,139.625,-5879.32,0,0
21714.625,146.593,-5534.29,0,0
23016.25,124.111,-5231.8,0,0
24317.875,115.185,-4946.04,0,0
25619.5,111.449,-4691.14,0,0
26921.1,105.805,-4460.39,0,0
28222.7,118.204,-4257.57,0,0
29524.4,113.449,-4079.55,0,0
30826,98.3612,-3904.68,0,0
32127.6,100.094,-3743.2,0,0
33429.2,89.2094,-3601.96,0,0
34730.9,84.1853,-3462.46,0,0
36032.5,81.1198,-3334.53,0,0
37334.1,78.9477,-3215.07,0,0
38635.7,76.5858,-3102.66,0,0
39937.4,76.7285,-2996.17,0,0
41239,80.0029,-2901.39,0,0
42540.6,78.3499,-2813.53,0,0
43842.225,73.0167,-2729.2,0,0
45143.85,70.9692,-2647.96,0,0
46445.475,69.9375,-2570.08,0,0
47747.1,69.6012,-2500.28,0,0
49048.725,65.5222,-2430.74,0,0
50350.35,63.9104,-2363.04,0,0
51651.975,63.3217,-2298.18,0,0
52953.6,65.1276,-2234.96,0,0
54255.225,73.1992,-2178,0,0
55556.85,71.2379,-2135,0,0
56858.475,65.1979,-2080.48,0,0
58160.1,66.148,-2028.05,0,0
59461.7,70.189,-1977.55,0,0
60763.3,80.1631,-1938.92,0,0
62065,69.2979,-1905.9,0,0
63366.6,63.7133,-1860.1,0,0
64668.2,63.9703,-1816.55,0,0
65969.8,66.0265,-1775.35,0,0
67271.5,69.6011,-1739.12,0,0
68573.1,73.8425,-1709.85,0,0
69874.7,66.1236,-1680.47,0,0
71176.3,64.3432,-1646.04,0,0
72478,58.5809,-1613.86,0,0
73779.6,57.241,-1577.63,0,0
75081.2,59.315,-1544.27,0,0
76382.825,61.693,-1515.29,0,0
77684.45,65.1463,-1487.34,0,0
78986.075,63.8008,-1465.07,0,0
80287.7,60.8601,-1438.08,0,0
81589.325,60.5096,-1412.03,0,0
82890.95,59.2348,-1387.15,0,0
84192.575,57.9185,-1362.28,0,0
85494.2,56.9358,-1338.04,0,0
86795.825,56.0077,-1314.18,0,0
88097.45,54.4646,-1291.34,0,0
89399.075,53.1435,-1266.91,0,0
90700.7,53.2068,-1243.81,0,0
92002.3,53.5552,-1220.57,0,0
93303.9,54.9318,-1199.6,0,0
94605.6,53.5364,-1179.59,0,0
95907.2,52.7923,-1157.15,0,0
97208.8,53.349,-1135.37,0,0
98510.4,54.5183,-1113.78,0,0
99812.1,56.8617,-1093.02,0,0
101114,60.6822,-1074.4,0,0
102415,59.8553,-1059.2,0,0
103717,57.571,-1036.51,0,0
105019,60.8933,-1013.04,0,0
106320.175,67.2005,-992.245,0,0
107621.8,73.7943,-973.99,0,0
108923.425,82.0487,-956.751,0,0
110225.05,90.5554,-943.525,0,0
111526.675,97.1282,-932.371,0,0
112828.3,102.584,-922.176,0,0
114129.925,106.516,-913.349,0,0
115431.55,109.002,-905.239,0,0
116733.175,109.125,-896.853,0,0
118034.8,107.671,-886.572,0,0
119336.425,108.79,-873.265,0,0
120638.05,114.021,-868.903,0,0
121939.675,106.441,-862.708,0,0
123241,101.545,-850.419,0,0
124543,98.6496,-837.38,0,0
125845,97.4959,-825.466,0,0
127146,94.4906,-815.327,0,0
128448,89.2585,-805.015,0,0
129749,81.3349,-790.599,0,0
131051,75.8714,-772.764,0,0
132353,72.8825,-753.863,0,0
133654,71.6737,-734.878,0,0
134956,71.9743,-715.967,0,0
136258,73.5026,-697.428,0,0
137559,75.6767,-679.773,0,0
138860.775,77.5505,-661.246,0,0
140162.4,80.9468,-642.164,0,0
141464.025,86.1111,-623.098,0,0
142765.65,91.9281,-604.943,0,0
144067.275,98.3211,-586.766,0,0
145368.9,105.655,-568.255,0,0
146670.525,114.568,-549.604,0,0
147972.15,124.891,-531.279,0,0
149273.775,136.423,-513.245,0,0
150575.4,150.808,-494.16,0,0
151877.025,169.01,-476.794,0,0
153178.65,191.474,-463.68,0,0
154480,213.582,-457.865,0,0
155782,231.492,-454.031,0,0
157084,247.161,-450.968,0,0
158385,262.411,-446.402,0,0
159687,282.149,-446.041,0,0
160988,297.806,-449.65,0,0
162290,307.536,-455.774,0,0
163592,310.813,-457.158,0,0
164893,317.273,-448.955,0,0
166195,333.322,-437.693,0,0
167497,361.625,-435.76,0,0
168798,390.037,-448.036,0,0
170100,413.475,-476.48,0,0
171401.375,414.288,-515.989,0,0
172703.0,392.156,-547.476,0,0
174004.625,358.678,-557.775,0,0
175306.25,327.882,-550.863,0,0
176607.875,306.374,-529.651,0,0
177909.5,297.286,-505.792,0,0
179211.125,295.613,-482.898,0,0
180512.75,299.356,-463.892,0,0
181814.375,303.342,-447.605,0,0
183116.0,305.791,-431.386,0,0
184417.625,309.393,-411.222,0,0
185719.25,316.259,-389.569,0,0
187021,325.163,-365.436,0,0
188322,339.148,-338.023,0,0
189624,359.23,-308.85,0,0
190926,387.632,-278.91,0,0
192227,425.868,-250.669,0,0
193529,473.638,-228.025,0,0
194831,528.625,-213.039,0,0
196132,591.085,-204.66,0,0
197434,663.752,-206.702,0,0
198735,747.604,-224.566,0,0
200037,837.712,-275.761,0,0
201339,910.09,-359.734,0,0
202640.35,949.984,-460.754,0,0
203941.975,962.973,-566.926,0,0
205243.6,947.767,-665.41,0,0
206545.225,912.882,-754.922,0,0
207846.85,855.85,-831.852,0,0
209148.475,783.357,-883.256,0,0
210450.1,714.175,-905.85,0,0
211751.725,656.07,-913.043,0,0
213053.35,605.938,-911.464,0,0
214354.975,570.69,-899.345,0,0
215656.6,548.895,-896.967,0,0
216958.225,523.93,-898.766,0,0
218259.85,499.311,-899.96,0,0
219561,475.256,-901.017,0,0
220863,449.594,-900.015,0,0
222165,426.689,-896.113,0,0
223466,407.04,-891.439,0,0
224768,388.614,-890.706,0,0
226070,366.385,-890.287,0,0
227371,341.201,-887.551,0,0
228673,314.437,-879.227,0,0
229974,291.212,-865.353,0,0
231276,271.259,-849.287,0,0
232578,256.074,-832.607,0,0
233879,242.935,-815.238,0,0
235180.95,233.81,-798.76,0,0
236482.575,225.682,-783.544,0,0
237784.2,219.633,-767.801,0,0
239085.825,216.218,-753.627,0,0
240387.45,214.236,-741.384,0,0
241689.075,212.986,-731.419,0,0
242990.7,211.187,-723.625,0,0
244292.325,207.322,-717.258,0,0
245593.95,201.446,-709.292,0,0
246895.575,195.825,-699.22,0,0
248197.2,192.044,-688.06,0,0
249498.825,190.38,-676.889,0,0
250800,189.7,-668.13,0,0
252102,186.42,-659.723,0,0
253404,183.471,-648.964,0,0
254705,180.147,-637.796,0,0
256007,178.087,-622.109,0,0
257309,180.456,-604.035,0,0
258610,188.923,-585.845,0,0
259912,202.95,-571.183,0,0
261213,220.69,-560.326,0,0
262515,242.462,-554.763,0,0
263817,264.324,-560.26,0,0
265118,280.18,-568.562,0,0
266420,297.273,-580.363,0,0
267721.55,310.299,-602.657,0,0
269023.175,308.972,-628.774,0,0
270324.8,297.931,-647.268,0,0
271626.425,287.097,-659.31,0,0
272928.05,274.017,-668.64,0,0
274229.675,262.595,-676.756,0,0
275531.3,245.942,-684.645,0,0
276832.925,224.074,-686.017,0,0
278134.55,204.465,-676.118,0,0
279436.175,195.237,-661.936,0,0
280737.8,191.166,-653.004,0,0
282039.425,188.141,-643.763,0,0
283341,188.929,-638.185,0,0
284643,187.646,-637.205,0,0
285944,181.132,-636.468,0,0
287246,173.219,-630.238,0,0
288548,167.682,-619.69,0,0
289849,168.447,-607.413,0,0
291151,175.649,-597.458,0,0
292452,187.005,-594.856,0,0
293754,196.79,-600.576,0,0
295056,199.409,-612.787,0,0
296357,192.805,-623.257,0,0
297659,182.755,-627.795,0,0
298960.525,173.494,-628.967,0,0
300262.15,164.294,-628.34,0,0
301563.775,155.759,-625.711,0,0
302865.4,148.242,-622.292,0,0
304167.025,140.881,-617.741,0,0
305468.65,134.904,-612.118,0,0
306770.275,130.197,-605.991,0,0
308071.9,127.353,-600.209,0,0
309373.525,124.844,-596.063,0,0
310675.15,121.493,-591.821,0,0
311976.775,118.57,-587.137,0,0
313278.4,116.431,-582.154,0,0
314580,115.134,-578.143,0,0
315882,113.438,-574.667,0,0
317183,112.165,-571.357,0,0
318485,111.037,-568.792,0,0
319787,109.359,-567.732,0,0
321088,105.857,-567.292,0,0
322390,100.309,-565.937,0,0
323691,93.5572,-561.947,0,0
324993,88.3277,-555.82,0,0
326295,84.6946,-549.291,0,0
327596,81.7876,-542.823,0,0
328898,79.3838,-535.884,0,0
330200,78.587,-528.388,0,0
331501.125,79.759,-521.761,0,0
332802.75,81.5172,-517.939,0,0
334104.375,81.367,-515.319,0,0
335406.0,79.9583,-512.111,0,0
336707.625,78.1,-507.989,0,0
338009.25,76.3432,-502.902,0,0
339310.875,75.2204,-496.628,0,0
340612.5,75.9817,-489.781,0,0
341914.125,78.7119,-483.594,0,0
343215.75,82.8167,-479.574,0,0
344517.375,86.6405,-477.9,0,0
345819.0,88.9768,-477.682,0,0
347121,89.5196,-478.03,0,0
348422,88.7482,-477.704,0,0
349724,87.4779,-476.857,0,0
351025,85.1633,-475.376,0,0
352327,83.1824,-472.194,0,0
353629,82.3985,-468.89,0,0
354930,81.5429,-465.873,0,0
356232,80.9671,-462.511,0,0
357534,80.8851,-459.573,0,0
358835,80.4368,-457.155,0,0
360137,79.2452,-454.171,0,0
361438,78.5389,-450.193,0,0
362740.1,78.6069,-446.502,0,0
364041.725,78.7172,-442.888,0,0
365343.35,78.7342,-439.055,0,0
366644.975,79.2555,-434.676,0,0
367946.6,80.5533,-429.779,0,0
369248.225,83.3669,-425.091,0,0
370549.85,87.6643,-420.982,0,0
371851.475,93.7447,-419,0,0
373153.1,99.2309,-420.523,0,0
374454.725,101.979,-423.846,0,0
375756.35,102.374,-426.636,0,0
377057.975,101.378,-428.191,0,0
378359.6,100.86,-428.644,0,0
379661,100.39,-429.733,0,0
380963,98.782,-430.32,0,0
382264,98.0773,-429.909,0,0
383566,97.8953,-430.725,0,0
384868,96.5045,-432.868,0,0
386169,92.5984,-434.825,0,0
387471,87.1107,-433.985,0,0
388773,83.2476,-430.469,0,0
390074,82.1126,-427.09,0,0
391376,81.4797,-425.929,0,0
392677,79.38,-425.479,0,0
393979,76.035,-424.595,0,0
395280.7,72.1365,-422.488,0,0
396582.325,68.2683,-419.237,0,0
397883.95,64.9916,-414.883,0,0
399185.575,62.48,-409.885,0,0
400006.6,61.4652,-406.397,0,0