File: Accelerated corrosion test data/2025-09-30_08-18-27/sample_8.csv
Frequency (Hz),Impedance (ohms),Phase (Radians),Temperature (C),Humidity (%)
10000.0,319.101,-10923.2,0,0
11301.625,282.499,-9680.98,0,0
12603.25,258.812,-8694.17,0,0
13904.875,230.662,-7896.71,0,0
15206.5,209.884,-7225.38,0,0
16508.125,193.439,-6661.7,0,0
17809.75,180.219,-6177.92,0,0
19111.375,170.123,-5757.62,0,0
20413.0,162.261,-5396.58,0,0
21714.625,153.425,-5077.16,0,0
23016.25,146.35,-4796.15,0,0
24317.875,136.553,-4540.48,0,0
25619.5,129.508,-4308.74,0,0
26921.1,124.108,-4099.01,0,0
28222.7,120.424,-3909.01,0,0
29524.4,117.507,-3736.56,0,0
30826,115.212,-3580.08,0,0
32127.6,112.304,-3434.59,0,0
33429.2,112.552,-3299.56,0,0
34730.9,111.309,-3179.94,0,0
36032.5,107.997,-3070.18,0,0
37334.1,101.743,-2965.44,0,0
38635.7,94.6039,-2865.81,0,0
39937.4,88.9502,-2770.13,0,0
41239,86.1773,-2679.76,0,0
42540.6,83.5631,-2595.2,0,0
43842.225,82.9392,-2516.68,0,0
45143.85,79.6559,-2443.23,0,0
46445.475,76.8369,-2372.65,0,0
47747.1,75.4291,-2305.46,0,0
49048.725,73.4876,-2242.85,0,0
50350.35,71.5273,-2182.19,0,0
51651.975,70.6084,-2124.41,0,0
52953.6,70.0909,-2070.16,0,0
54255.225,69.1699,-2020.14,0,0
55556.85,65.9374,-1970.86,0,0
56858.475,63.7132,-1922.06,0,0
58160.1,62.8058,-1875.39,0,0
59461.7,62.8127,-1831.52,0,0
60763.3,61.1986,-1789.38,0,0
62065,61.1182,-1748.35,0,0
63366.6,61.1853,-1708.78,0,0
64668.2,62.7493,-1671.85,0,0
65969.8,62.3088,-1638.32,0,0
67271.5,59.6841,-1604.28,0,0
68573.1,58.9015,-1570.17,0,0
69874.7,58.2964,-1536.96,0,0
71176.3,58.7794,-1505.47,0,0
72478,59.3199,-1475.67,0,0
73779.6,58.4661,-1447.01,0,0
75081.2,58.0242,-1418.68,0,0
76382.825,57.8315,-1390.68,0,0
77684.45,57.8308,-1364.05,0,0
78986.075,57.4027,-1337.98,0,0
80287.7,57.3661,-1311.97,0,0
81589.325,57.7609,-1286.76,0,0
82890.95,58.5861,-1261.67,0,0
84192.575,60.4635,-1237.85,0,0
85494.2,62.3631,-1215.9,0,0
86795.825,62.3999,-1194.56,0,0
88097.45,63.4014,-1172.15,0,0
89399.075,65.6034,-1150.71,0,0
90700.7,68.2263,-1129.94,0,0
92002.3,72.4723,-1110.17,0,0
93303.9,76.1698,-1094.92,0,0
94605.6,74.969,-1079.89,0,0
95907.2,76.2287,-1061.03,0,0
97208.8,77.3447,-1043.97,0,0
98510.4,79.7519,-1028.41,0,0
99812.1,80.4846,-1014.44,0,0
101114,80.994,-999.255,0,0
102415,80.365,-984.976,0,0
103717,79.9697,-969.916,0,0
105019,79.278,-955.019,0,0
106320.175,79.3224,-939.273,0,0
107621.8,80.5566,-924.68,0,0
108923.425,80.8846,-910.539,0,0
110225.05,81.9347,-896.812,0,0
111526.675,82.0759,-884.017,0,0
112828.3,82.1495,-870.749,0,0
114129.925,81.9164,-857.867,0,0
115431.55,81.3789,-844.753,0,0
116733.175,80.8685,-831.745,0,0
118034.8,79.9481,-818.231,0,0
119336.425,80.1681,-804.156,0,0
120638.05,79.9427,-791.144,0,0
121939.675,79.7588,-777.227,0,0
123241,80.3243,-763.63,0,0
124543,80.3885,-749.953,0,0
125845,81.7086,-736.22,0,0
127146,82.9374,-722.937,0,0
128448,84.3741,-710.258,0,0
129749,84.9495,-697.978,0,0
131051,84.4957,-684.321,0,0
132353,87.1207,-669.407,0,0
133654,88.9442,-655.897,0,0
134956,91.5643,-643.239,0,0
136258,94.3236,-630.166,0,0
137559,96.9794,-618.726,0,0
138860.775,96.0304,-607.191,0,0
140162.4,96.4716,-591.656,0,0
141464.025,97.9902,-576.295,0,0
142765.65,100.385,-559.6,0,0
144067.275,103.803,-542.447,0,0
145368.9,109.257,-523.028,0,0
146670.525,119.56,-504.743,0,0
147972.15,130.878,-490.731,0,0
149273.775,136.714,-475.998,0,0
150575.4,150.627,-455.535,0,0
151877.025,172.072,-440.503,0,0
153178.65,193.074,-440.912,0,0
154480,200.898,-441.425,0,0
155782,207.032,-432.34,0,0
157084,222.801,-431.106,0,0
158385,218.55,-426.627,0,0
159687,230.031,-407.295,0,0
160988,246.863,-409.747,0,0
162290,250.444,-399.627,0,0
163592,267.797,-392.798,0,0
164893,281.169,-398.23,0,0
166195,286.079,-402.405,0,0
167497,279.249,-407.265,0,0
168798,269.182,-396.201,0,0
170100,266.403,-375.162,0,0
171401.375,271.294,-353.474,0,0
172703.0,281.154,-328.395,0,0
174004.625,301.52,-306.283,0,0
175306.25,324.859,-291.483,0,0
176607.875,343.709,-278.772,0,0
177909.5,369.175,-261.558,0,0
179211.125,398.907,-249.212,0,0
180512.75,432.722,-242.629,0,0
181814.375,465.378,-240.391,0,0
183116.0,497.776,-243.13,0,0
184417.625,525.788,-247.112,0,0
185719.25,555.487,-249.084,0,0
187021,593.143,-245.522,0,0
188322,638.283,-253.843,0,0
189624,690.334,-274.823,0,0
190926,728.616,-305.74,0,0
192227,773.717,-330.305,0,0
193529,820.401,-377.884,0,0
194831,873.488,-431.794,0,0
196132,906.3,-527.058,0,0
197434,907.522,-630.89,0,0
198735,862.021,-726.006,0,0
200037,802.177,-790.453,0,0
201339,729.814,-830.834,0,0
202640.35,667.385,-849.368,0,0
203941.975,604.886,-853.329,0,0
205243.6,551.9,-838.451,0,0
206545.225,517.597,-817.356,0,0
207846.85,496.003,-792.689,0,0
209148.475,488.183,-775.32,0,0
210450.1,484.143,-761.777,0,0
211751.725,487.117,-757.501,0,0
213053.35,488.748,-759.697,0,0
214354.975,486.973,-771.608,0,0
215656.6,472.584,-783.547,0,0
216958.225,454.255,-783.455,0,0
218259.85,446.212,-776.006,0,0
219561,448.666,-775.753,0,0
220863,448.561,-785.773,0,0
222165,444.463,-799.81,0,0
223466,432.57,-818.344,0,0
224768,411.656,-830.632,0,0
226070,391.631,-838.797,0,0
227371,367.972,-846.095,0,0
228673,342.801,-845.81,0,0
229974,321.385,-842.025,0,0
231276,300.759,-838.599,0,0
232578,279.693,-832.191,0,0
233879,259.087,-823.018,0,0
235180.95,240.335,-809.672,0,0
236482.575,226.366,-793.951,0,0
237784.2,217.174,-778.574,0,0
239085.825,210.889,-765.792,0,0
240387.45,205.967,-755.594,0,0
241689.075,199.661,-748.63,0,0
242990.7,189.655,-740.074,0,0
244292.325,180.915,-727.937,0,0
245593.95,174.558,-715.939,0,0
246895.575,168.742,-702.117,0,0
248197.2,166.636,-688.29,0,0
249498.825,165.49,-676.085,0,0
250800,166.055,-663.342,0,0
252102,168.867,-651.648,0,0
253404,174.615,-642.875,0,0
254705,177.526,-638.017,0,0
256007,179.183,-630.566,0,0
257309,183.921,-623.278,0,0
258610,189.341,-617.898,0,0
259912,196.095,-614.644,0,0
261213,201.431,-613.961,0,0
262515,206.156,-614.413,0,0
263817,208.257,-615.192,0,0
265118,210.424,-614.665,0,0
266420,214.531,-611.956,0,0
267721.55,224.159,-611.773,0,0
269023.175,235.596,-619.09,0,0
270324.8,243.669,-634.989,0,0
271626.425,242.872,-654.995,0,0
272928.05,232.611,-675.936,0,0
274229.675,211.212,-690.965,0,0
275531.3,186.865,-694.186,0,0
276832.925,165.87,-688.288,0,0
278134.55,151.798,-679.171,0,0
279436.175,140.461,-670.057,0,0
280737.8,131.914,-659.373,0,0
282039.425,127.722,-649.779,0,0
283341,124.175,-641.713,0,0
284643,122.147,-634.164,0,0
285944,122.29,-627.927,0,0
287246,124.242,-625.325,0,0
288548,123.078,-627.827,0,0
289849,116.447,-629.345,0,0
291151,108.329,-627.503,0,0
292452,100.895,-624.092,0,0
293754,92.7565,-619.539,0,0
295056,85.242,-612.456,0,0
296357,79.9578,-604.537,0,0
297659,75.6806,-596.661,0,0
298960.525,72.5373,-588.54,0,0
300262.15,70.5907,-580.58,0,0
301563.775,69.6007,-573.135,0,0
302865.4,69.5991,-565.965,0,0
304167.025,70.7589,-560.127,0,0
305468.65,71.6496,-555.832,0,0
306770.275,72.1772,-551.821,0,0
308071.9,72.8325,-548.83,0,0
309373.525,72.7299,-546.596,0,0
310675.15,71.4382,-544.588,0,0
311976.775,69.6515,-541.889,0,0
313278.4,67.8882,-539.014,0,0
314580,65.7836,-536.082,0,0
315882,63.2509,-532.326,0,0
317183,61.4385,-527.843,0,0
318485,60.6299,-523.468,0,0
319787,60.408,-519.756,0,0
321088,60.0908,-516.894,0,0
322390,59.1638,-514.694,0,0
323691,57.4623,-512.183,0,0
324993,55.5159,-509.561,0,0
326295,53.2803,-506.4,0,0
327596,51.1923,-502.704,0,0
328898,49.2695,-498.774,0,0
330200,47.6425,-494.587,0,0
331501.125,46.3679,-490.387,0,0
332802.75,45.2955,-486.128,0,0
334104.375,44.5455,-481.865,0,0
335406.0,44.1724,-477.63,0,0
336707.625,44.1987,-473.875,0,0
338009.25,44.1345,-470.489,0,0
339310.875,43.8916,-467.302,0,0
340612.5,43.426,-464.228,0,0
341914.125,42.754,-461.137,0,0
343215.75,41.9973,-457.793,0,0
344517.375,41.3112,-454.241,0,0
345819.0,40.8878,-450.496,0,0
347121,40.7225,-446.791,0,0
348422,40.7585,-443.146,0,0
349724,41.0319,-439.596,0,0
351025,41.4892,-436.332,0,0
352327,41.9981,-433.313,0,0
353629,42.4246,-430.511,0,0
354930,42.7291,-427.714,0,0
356232,43.133,-425.19,0,0
357534,43.3503,-422.823,0,0
358835,43.2212,-420.452,0,0
360137,43.0235,-417.763,0,0
361438,42.858,-414.875,0,0
362740.1,42.8578,-411.926,0,0
364041.725,43.0866,-408.855,0,0
365343.35,43.5923,-405.799,0,0
366644.975,44.3814,-402.993,0,0
367946.6,45.266,-400.522,0,0
369248.225,45.9758,-398.096,0,0
370549.85,46.9831,-395.651,0,0
371851.475,48.2885,-393.828,0,0
373153.1,49.1234,-392.52,0,0
374454.725,49.3439,-391.296,0,0
375756.35,49.4837,-389.665,0,0
377057.975,49.7428,-388.122,0,0
378359.6,49.7821,-386.79,0,0
379661,49.3402,-385.08,0,0
380963,49.7733,-382.9,0,0
382264,50.5919,-382.306,0,0
383566,49.3322,-382.056,0,0
384868,47.508,-380.263,0,0
386169,46.1912,-377.766,0,0
387471,45.2499,-374.949,0,0
388773,44.793,-371.917,0,0
390074,44.7186,-369.009,0,0
391376,44.9181,-366.451,0,0
392677,44.8578,-364.059,0,0
393979,44.7592,-361.465,0,0
395280.7,44.839,-358.754,0,0
396582.325,45.1211,-356.08,0,0
397883.95,45.6155,-353.621,0,0
399185.575,45.981,-351.322,0,0
400006.6,46.0977,-349.937,0,0