File: Accelerated corrosion test data/2025-09-30_08-18-27/sample_3.csv
Frequency (Hz),Impedance (ohms),Phase (Radians),Temperature (C),Humidity (%)
10000.0,254.568,-11746.9,0,0
11301.625,227.288,-10405,0,0
12603.25,205.749,-9338.86,0,0
13904.875,187.655,-8469.12,0,0
15206.5,175.04,-7743.67,0,0
16508.125,164.532,-7149.83,0,0
17809.75,159.409,-6621.86,0,0
19111.375,147.74,-6172.02,0,0
20413.0,157.817,-5772.06,0,0
21714.625,140.015,-5454.45,0,0
23016.25,129.762,-5149.91,0,0
24317.875,120.95,-4871.19,0,0
25619.5,115.432,-4625.57,0,0
26921.1,109.986,-4395.53,0,0
28222.7,104.946,-4190.61,0,0
29524.4,111.227,-4011.28,0,0
30826,101.949,-3841.52,0,0
32127.6,102.859,-3678.28,0,0
33429.2,100.788,-3553.19,0,0
34730.9,89.0424,-3416.5,0,0
36032.5,83.9791,-3289.15,0,0
37334.1,81.6632,-3171.85,0,0
38635.7,79.12,-3062.29,0,0
39937.4,76.919,-2960.3,0,0
41239,75.369,-2863.84,0,0
42540.6,74.4646,-2774.05,0,0
43842.225,72.7055,-2688.94,0,0
45143.85,71.4803,-2609.67,0,0
46445.475,71.1259,-2534.07,0,0
47747.1,71.0578,-2461.66,0,0
49048.725,69.5038,-2396.47,0,0
50350.35,67.6531,-2331.62,0,0
51651.975,67.2974,-2269.33,0,0
52953.6,67.5816,-2209.63,0,0
54255.225,70.2802,-2155.15,0,0
55556.85,67.9139,-2108.1,0,0
56858.475,62.612,-2055.22,0,0
58160.1,62.1344,-2003.3,0,0
59461.7,62.6206,-1954.29,0,0
60763.3,64.0089,-1907.77,0,0
62065,66.2232,-1863.39,0,0
63366.6,69.8083,-1820.13,0,0
64668.2,78.1668,-1778.71,0,0
65969.8,92.7545,-1752.59,0,0
67271.5,77.6304,-1728.16,0,0
68573.1,77.011,-1690.83,0,0
69874.7,76.4229,-1661.66,0,0
71176.3,71.0727,-1631.07,0,0
72478,69.4498,-1598.54,0,0
73779.6,67.9053,-1570.02,0,0
75081.2,64.3468,-1541.69,0,0
76382.825,60.9193,-1512.49,0,0
77684.45,58.5817,-1483.55,0,0
78986.075,56.4108,-1455.15,0,0
80287.7,54.9515,-1427.18,0,0
81589.325,53.963,-1400.06,0,0
82890.95,53.4317,-1373.71,0,0
84192.575,53.1517,-1348.1,0,0
85494.2,53.0562,-1323.19,0,0
86795.825,53.2556,-1298.89,0,0
88097.45,53.7247,-1274.82,0,0
89399.075,55.0776,-1251.25,0,0
90700.7,57.3754,-1229.14,0,0
92002.3,60.2003,-1208.01,0,0
93303.9,63.806,-1189.32,0,0
94605.6,65.8013,-1175.06,0,0
95907.2,60.0871,-1158.19,0,0
97208.8,59.2438,-1137.25,0,0
98510.4,59.4207,-1118.44,0,0
99812.1,58.5166,-1100.34,0,0
101114,57.4415,-1081.01,0,0
102415,58.433,-1060.35,0,0
103717,62.5694,-1042.55,0,0
105019,66.4898,-1029.06,0,0
106320.175,64.7184,-1016.72,0,0
107621.8,61.2064,-1000.74,0,0
108923.425,58.9433,-982.654,0,0
110225.05,58.9734,-963.595,0,0
111526.675,61.5937,-945.394,0,0
112828.3,63.5518,-929.355,0,0
114129.925,65.1764,-913.011,0,0
115431.55,67.7225,-896.469,0,0
116733.175,71.5016,-880.164,0,0
118034.8,77.1523,-864.778,0,0
119336.425,84.109,-853.311,0,0
120638.05,88.5353,-847.139,0,0
121939.675,86.7112,-837.845,0,0
123241,86.9732,-825.147,0,0
124543,88.1897,-813.934,0,0
125845,88.9484,-803.814,0,0
127146,88.0141,-793.75,0,0
128448,85.965,-782.544,0,0
129749,84.4051,-769.13,0,0
131051,85.2107,-755.637,0,0
132353,84.9911,-744.316,0,0
133654,84.346,-732.023,0,0
134956,83.1779,-719.216,0,0
136258,82.0984,-705.463,0,0
137559,82.3252,-690.348,0,0
138860.775,83.649,-676.885,0,0
140162.4,83.0397,-663.607,0,0
141464.025,83.025,-648.85,0,0
142765.65,82.7101,-633.192,0,0
144067.275,83.1755,-616.175,0,0
145368.9,84.8679,-598.386,0,0
146670.525,87.4367,-579.585,0,0
147972.15,91.9058,-559.636,0,0
149273.775,98.7021,-539.331,0,0
150575.4,108.782,-518.909,0,0
151877.025,122.063,-501.744,0,0
153178.65,134.944,-487.673,0,0
154480,145.936,-475.369,0,0
155782,154.085,-460.092,0,0
157084,166.441,-443.237,0,0
158385,181.501,-429.863,0,0
159687,190.779,-414.912,0,0
160988,203.259,-388.515,0,0
162290,232.846,-361.653,0,0
163592,272.468,-345.608,0,0
164893,317.834,-337.453,0,0
166195,370.249,-352.93,0,0
167497,405.428,-385.136,0,0
168798,424.943,-422.441,0,0
170100,429.438,-459.092,0,0
171401.375,412.781,-479.369,0,0
172703.0,407.513,-484.008,0,0
174004.625,410.689,-489.292,0,0
175306.25,419.042,-507.584,0,0
176607.875,407.253,-531.069,0,0
177909.5,389.819,-542.588,0,0
179211.125,365.294,-538.247,0,0
180512.75,356.568,-523.585,0,0
181814.375,361.318,-518.316,0,0
183116.0,354.945,-525.696,0,0
184417.625,340.287,-521.033,0,0
185719.25,327.579,-506.118,0,0
187021,323.016,-485.221,0,0
188322,328.951,-466.246,0,0
189624,335.984,-453.015,0,0
190926,344.459,-437.577,0,0
192227,354.68,-424.279,0,0
193529,366.295,-408.567,0,0
194831,387.899,-389.734,0,0
196132,421.962,-386.882,0,0
197434,445.042,-399.181,0,0
198735,453.817,-410.072,0,0
200037,460.372,-408.258,0,0
201339,469.678,-407.231,0,0
202640.35,482.518,-399.172,0,0
203941.975,507.963,-392.357,0,0
205243.6,539.589,-397.355,0,0
206545.225,561.968,-415.969,0,0
207846.85,576.171,-424.653,0,0
209148.475,600.662,-429.002,0,0
210450.1,634.183,-444.665,0,0
211751.725,663.455,-472.841,0,0
213053.35,686.602,-505.797,0,0
214354.975,707.318,-546.429,0,0
215656.6,716.614,-593.83,0,0
216958.225,718.616,-641.023,0,0
218259.85,707.508,-690.113,0,0
219561,685.205,-732.725,0,0
220863,665.949,-766.492,0,0
222165,635.853,-807.823,0,0
223466,590.963,-834.021,0,0
224768,549.245,-840.296,0,0
226070,521.999,-838.689,0,0
227371,504.389,-846.652,0,0
228673,479.573,-857.91,0,0
229974,450.065,-866.801,0,0
231276,418.527,-868.475,0,0
232578,390.357,-864.512,0,0
233879,365.673,-859.171,0,0
235180.95,342.25,-853.973,0,0
236482.575,318.089,-847.213,0,0
237784.2,294.206,-836.832,0,0
239085.825,271.699,-822.563,0,0
240387.45,253.631,-804.286,0,0
241689.075,241.169,-785.394,0,0
242990.7,232.606,-767.217,0,0
244292.325,227.822,-751.367,0,0
245593.95,223.851,-739.419,0,0
246895.575,219.24,-727.493,0,0
248197.2,215.551,-715.57,0,0
249498.825,214.53,-704.402,0,0
250800,213.857,-696.734,0,0
252102,209.887,-691.047,0,0
253404,202.776,-681.978,0,0
254705,197.793,-667.445,0,0
256007,197.973,-651.2,0,0
257309,205.547,-635.812,0,0
258610,216.795,-627.989,0,0
259912,226.742,-622.422,0,0
261213,241.127,-622.682,0,0
262515,251.792,-633.017,0,0
263817,252.488,-647.509,0,0
265118,244.139,-659.658,0,0
266420,229.143,-665.122,0,0
267721.55,214.448,-661.749,0,0
269023.175,204.158,-653.063,0,0
270324.8,198.734,-643.479,0,0
271626.425,196.506,-634.262,0,0
272928.05,196.65,-626.862,0,0
274229.675,196.819,-620.618,0,0
275531.3,199.114,-613.607,0,0
276832.925,204.801,-608.297,0,0
278134.55,213.415,-609.411,0,0
279436.175,217.354,-616.832,0,0
280737.8,213.716,-625.663,0,0
282039.425,205.995,-629.042,0,0
283341,198.394,-630.364,0,0
284643,189.872,-628.761,0,0
285944,182.418,-624.868,0,0
287246,176.264,-618.452,0,0
288548,174.391,-610.624,0,0
289849,176.007,-606.298,0,0
291151,175.564,-605.092,0,0
292452,173.761,-603.368,0,0
293754,171.849,-600.255,0,0
295056,172.921,-597.299,0,0
296357,174.757,-597.955,0,0
297659,173.964,-601.201,0,0
298960.525,169.85,-604.781,0,0
300262.15,163.405,-606.177,0,0
301563.775,156.578,-605.851,0,0
302865.4,149.375,-603.844,0,0
304167.025,142.878,-600.24,0,0
305468.65,137.318,-595.421,0,0
306770.275,133.061,-590.195,0,0
308071.9,130.427,-584.876,0,0
309373.525,128.62,-581.24,0,0
310675.15,125.769,-578.509,0,0
311976.775,121.932,-575.104,0,0
313278.4,117.925,-570.743,0,0
314580,114.67,-564.664,0,0
315882,113.458,-558.099,0,0
317183,114.337,-552.773,0,0
318485,115.593,-549.716,0,0
319787,115.555,-547.525,0,0
321088,115.262,-545.296,0,0
322390,115.561,-543.3,0,0
323691,115.649,-542.951,0,0
324993,114.102,-543.4,0,0
326295,110.846,-543.635,0,0
327596,106.736,-542.664,0,0
328898,102.516,-540.393,0,0
330200,98.858,-538.065,0,0
331501.125,94.5884,-535.376,0,0
332802.75,90.0468,-531.895,0,0
334104.375,85.7547,-527.3,0,0
335406.0,81.8213,-521.754,0,0
336707.625,79.2269,-515.584,0,0
338009.25,77.5312,-509.336,0,0
339310.875,76.4284,-502.93,0,0
340612.5,76.8066,-496.455,0,0
341914.125,78.8027,-491.052,0,0
343215.75,81.1667,-487.502,0,0
344517.375,82.6885,-485.56,0,0
345819.0,82.7563,-483.871,0,0
347121,82.1206,-481.726,0,0
348422,81.2195,-478.807,0,0
349724,81.1184,-475.35,0,0
351025,81.9865,-472.285,0,0
352327,83.0091,-470.472,0,0
353629,83.0739,-469.909,0,0
354930,81.3481,-468.959,0,0
356232,79.257,-466.568,0,0
357534,77.6996,-463.385,0,0
358835,76.6245,-460.057,0,0
360137,75.8864,-456.487,0,0
361438,75.7759,-452.897,0,0
362740.1,76.2383,-449.489,0,0
364041.725,77.1309,-446.64,0,0
365343.35,78.4985,-444.681,0,0
366644.975,79.1662,-444.303,0,0
367946.6,77.3109,-444.168,0,0
369248.225,74.2581,-441.287,0,0
370549.85,73.7129,-436.219,0,0
371851.475,75.6147,-433.184,0,0
373153.1,76.2798,-432.603,0,0
374454.725,74.951,-431.346,0,0
375756.35,73.4385,-428.704,0,0
377057.975,72.5589,-425.254,0,0
378359.6,72.8368,-421.703,0,0
379661,73.8343,-419.012,0,0
380963,74.6681,-416.952,0,0
382264,75.4585,-415.33,0,0
383566,75.6841,-414.558,0,0
384868,74.651,-413.6,0,0
386169,73.1891,-411.602,0,0
387471,71.8557,-408.753,0,0
388773,71.1744,-405.435,0,0
390074,71.0215,-401.781,0,0
391376,71.7543,-398.06,0,0
392677,73.3362,-394.784,0,0
393979,75.5315,-392.219,0,0
395280.7,77.9402,-390.844,0,0
396582.325,79.9291,-390.548,0,0
397883.95,80.9992,-391.062,0,0
399185.575,80.8039,-391.751,0,0
400006.6,80.0872,-391.943,0,0