File: Accelerated corrosion test data/2025-10-02_06-00-03/sample_6.csv
Frequency (Hz),Impedance (ohms),Phase (Radians),Temperature (C),Humidity (%)
10000.0,4279.98,-6477.12,0,0
11301.625,3651.47,-6114.75,0,0
12603.25,3147.78,-5762.81,0,0
13904.875,2741.3,-5443.1,0,0
15206.5,2406.18,-5140.15,0,0
16508.125,2129.4,-4862.17,0,0
17809.75,1897.38,-4607.08,0,0
19111.375,1704.11,-4372.15,0,0
20413.0,1537.71,-4159.26,0,0
21714.625,1394.04,-3961.99,0,0
23016.25,1274.59,-3774.25,0,0
24317.875,1168.2,-3617.41,0,0
25619.5,1073.17,-3462.68,0,0
26921.1,990.6,-3318.76,0,0
28222.7,919.274,-3187.85,0,0
29524.4,854.256,-3061.67,0,0
30826,799.053,-2946.77,0,0
32127.6,749.547,-2836.98,0,0
33429.2,712.016,-2739.18,0,0
34730.9,670.342,-2653.36,0,0
36032.5,631.217,-2570.82,0,0
37334.1,591.746,-2488.81,0,0
38635.7,557.807,-2408.59,0,0
39937.4,529.346,-2333.1,0,0
41239,503.682,-2262.46,0,0
42540.6,480.633,-2196.49,0,0
43842.225,459.276,-2130.16,0,0
45143.85,442.14,-2066.9,0,0
46445.475,431.725,-2011.17,0,0
47747.1,420.669,-1960.08,0,0
49048.725,414.303,-1917.15,0,0
50350.35,395.716,-1885.5,0,0
51651.975,371.432,-1842.2,0,0
52953.6,354.02,-1797.52,0,0
54255.225,336.517,-1755.86,0,0
55556.85,320.197,-1714.93,0,0
56858.475,306.452,-1667.85,0,0
58160.1,302.503,-1629.11,0,0
59461.7,293.918,-1597.29,0,0
60763.3,281.15,-1565.28,0,0
62065,266.579,-1529.57,0,0
63366.6,262.748,-1490.6,0,0
64668.2,256.217,-1466.08,0,0
65969.8,247.09,-1435.98,0,0
67271.5,235.436,-1407.02,0,0
68573.1,225.459,-1374.62,0,0
69874.7,218.411,-1342.13,0,0
71176.3,214.436,-1310.03,0,0
72478,212.914,-1280.28,0,0
73779.6,213.352,-1253.79,0,0
75081.2,212.303,-1229.96,0,0
76382.825,210.835,-1207.44,0,0
77684.45,209.126,-1184.34,0,0
78986.075,209.294,-1162.89,0,0
80287.7,209.345,-1144.31,0,0
81589.325,207.542,-1127.18,0,0
82890.95,204.296,-1110.29,0,0
84192.575,199.711,-1092.65,0,0
85494.2,195.997,-1073.26,0,0
86795.825,193.937,-1054.32,0,0
88097.45,192.023,-1036.85,0,0
89399.075,190.23,-1019.16,0,0
90700.7,189.608,-1002.41,0,0
92002.3,186.99,-987.035,0,0
93303.9,185.973,-970.035,0,0
94605.6,185.849,-952.467,0,0
95907.2,187.708,-939.152,0,0
97208.8,186.963,-927.687,0,0
98510.4,184.29,-911.099,0,0
99812.1,191.564,-896.98,0,0
101114,191.42,-893.6,0,0
102415,187.169,-882.596,0,0
103717,184.905,-876.891,0,0
105019,173.046,-870.249,0,0
106320.175,159.423,-851.065,0,0
107621.8,155.865,-827.024,0,0
108923.425,159.26,-807.823,0,0
110225.05,161.813,-792.291,0,0
111526.675,164.732,-776.885,0,0
112828.3,169.56,-763.753,0,0
114129.925,174.945,-752.781,0,0
115431.55,178.715,-742.952,0,0
116733.175,183.401,-736.442,0,0
118034.8,181.948,-731.075,0,0
119336.425,181.496,-718.907,0,0
120638.05,189.558,-707.222,0,0
121939.675,194.392,-710.77,0,0
123241,188.452,-707.714,0,0
124543,183.899,-701.886,0,0
125845,178.561,-693.868,0,0
127146,173.508,-684.237,0,0
128448,171.245,-671.02,0,0
129749,173.684,-661.567,0,0
131051,173.887,-655.459,0,0
132353,172.054,-649.913,0,0
133654,167.929,-644.411,0,0
134956,161.996,-636.304,0,0
136258,156.012,-626.029,0,0
137559,151.107,-613.73,0,0
138860.775,147.829,-600.351,0,0
140162.4,146.293,-586.704,0,0
141464.025,146.202,-573.133,0,0
142765.65,146.606,-560.334,0,0
144067.275,148.569,-546.955,0,0
145368.9,152.166,-536.21,0,0
146670.525,153.179,-527.65,0,0
147972.15,152.461,-517.274,0,0
149273.775,151.906,-504.756,0,0
150575.4,152.367,-490.269,0,0
151877.025,155.619,-473.532,0,0
153178.65,166.281,-459.572,0,0
154480,172.925,-452.73,0,0
155782,178.184,-441.734,0,0
157084,188.344,-433.468,0,0
158385,193.828,-430.501,0,0
159687,196.287,-425.238,0,0
160988,198.24,-418.843,0,0
162290,199.829,-411.892,0,0
163592,201.045,-403.741,0,0
164893,200.49,-394.275,0,0
166195,202.355,-381.567,0,0
167497,205.985,-369.97,0,0
168798,209.999,-357.953,0,0
170100,214.819,-346.325,0,0
171401.375,219.318,-334.352,0,0
172703.0,224.093,-321.604,0,0
174004.625,229.074,-308.125,0,0
175306.25,234.262,-292.473,0,0
176607.875,241.556,-274.554,0,0
177909.5,252.046,-255.168,0,0
179211.125,266.298,-234.734,0,0
180512.75,286.091,-215.827,0,0
181814.375,308.661,-200.726,0,0
183116.0,332.518,-189.908,0,0
184417.625,356.036,-180.833,0,0
185719.25,378.782,-177.183,0,0
187021,393.798,-174.256,0,0
188322,402.675,-161.464,0,0
189624,417.763,-135.103,0,0
190926,449.327,-100.042,0,0
192227,500.715,-70.6033,0,0
193529,563.054,-51.1011,0,0
194831,640.178,-42.93,0,0
196132,725.769,-56.9538,0,0
197434,810.12,-93.3259,0,0
198735,888.138,-146.401,0,0
200037,960.967,-220.328,0,0
201339,1020.26,-313.62,0,0
202640.35,1058.87,-433.604,0,0
203941.975,1050.71,-561.391,0,0
205243.6,1010.09,-670.695,0,0
206545.225,947.677,-757.985,0,0
207846.85,876.666,-818.382,0,0
209148.475,808.627,-857.085,0,0
210450.1,750.039,-884.016,0,0
211751.725,696.152,-911.887,0,0
213053.35,630.562,-934.976,0,0
214354.975,563.503,-939.425,0,0
215656.6,504.407,-930.328,0,0
216958.225,455.396,-914.252,0,0
218259.85,414.408,-895.126,0,0
219561,380.271,-874.261,0,0
220863,351.794,-853.054,0,0
222165,327.505,-831.28,0,0
223466,307.25,-808.657,0,0
224768,292.016,-785.524,0,0
226070,282.816,-763.085,0,0
227371,279.903,-744.558,0,0
228673,279.461,-734.13,0,0
229974,274.257,-730.031,0,0
231276,263.037,-724.856,0,0
232578,249.91,-715.303,0,0
233879,238.376,-702.047,0,0
235180.95,230.197,-687.135,0,0
236482.575,224.707,-672.181,0,0
237784.2,221.425,-657.794,0,0
239085.825,219.985,-644.133,0,0
240387.45,220.089,-631.6,0,0
241689.075,221.331,-619.77,0,0
242990.7,223.609,-608.603,0,0
244292.325,227.199,-598.028,0,0
245593.95,232.146,-588.093,0,0
246895.575,239.152,-578.559,0,0
248197.2,249.732,-570.802,0,0
249498.825,261.938,-567.526,0,0
250800,273.031,-567.719,0,0
252102,285.596,-568.18,0,0
253404,301.962,-574.511,0,0
254705,316.589,-590.631,0,0
256007,322.509,-614.048,0,0
257309,317.999,-637.955,0,0
258610,305.76,-658.296,0,0
259912,288.625,-673.447,0,0
261213,268.829,-682.784,0,0
262515,248.969,-686.524,0,0
263817,230.893,-686.41,0,0
265118,214.43,-683.881,0,0
266420,199.53,-679.595,0,0
267721.55,186.308,-673.967,0,0
269023.175,174.652,-667.615,0,0
270324.8,164.32,-660.911,0,0
271626.425,154.833,-654.014,0,0
272928.05,146.21,-646.851,0,0
274229.675,138.326,-639.401,0,0
275531.3,131.273,-631.68,0,0
276832.925,124.919,-623.824,0,0
278134.55,119.32,-615.922,0,0
279436.175,114.428,-607.711,0,0
280737.8,110.796,-599.405,0,0
282039.425,108.427,-592.096,0,0
283341,105.912,-585.654,0,0
284643,103.553,-579.245,0,0
285944,101.801,-573.063,0,0
287246,100.4,-567.857,0,0
288548,98.295,-562.94,0,0
289849,96.404,-557.72,0,0
291151,94.933,-552.81,0,0
292452,93.5951,-548.304,0,0
293754,92.2156,-544.445,0,0
295056,90.0873,-541.065,0,0
296357,87.1384,-537.166,0,0
297659,83.9554,-532.135,0,0
298960.525,81.9196,-525.975,0,0
300262.15,81.5211,-520.429,0,0
301563.775,81.1622,-516.058,0,0
302865.4,80.5601,-512.23,0,0
304167.025,79.5667,-508.273,0,0
305468.65,78.8387,-503.882,0,0
306770.275,79.211,-499.862,0,0
308071.9,79.3897,-497.386,0,0
309373.525,78.5445,-495.035,0,0
310675.15,77.3824,-492.554,0,0
311976.775,76.0674,-489.983,0,0
313278.4,74.373,-487.256,0,0
314580,72.7899,-484.297,0,0
315882,71.3108,-481.139,0,0
317183,69.8556,-478.122,0,0
318485,68.3365,-475.078,0,0
319787,66.6793,-471.989,0,0
321088,64.9656,-468.664,0,0
322390,63.5575,-464.998,0,0
323691,62.426,-461.56,0,0
324993,61.3427,-458.183,0,0
326295,60.1876,-454.812,0,0
327596,59.1219,-451.342,0,0
328898,58.1625,-447.917,0,0
330200,57.2195,-444.52,0,0
331501.125,56.4495,-441.098,0,0
332802.75,55.5963,-437.683,0,0
334104.375,54.9405,-434.187,0,0
335406.0,54.4746,-430.791,0,0
336707.625,54.0871,-427.585,0,0
338009.25,53.7023,-424.396,0,0
339310.875,53.2853,-421.176,0,0
340612.5,52.9934,-418.048,0,0
341914.125,52.8818,-414.87,0,0
343215.75,53.0919,-411.868,0,0
344517.375,53.2365,-409.651,0,0
345819.0,52.5595,-407.357,0,0
347121,51.7999,-404.502,0,0
348422,51.3408,-401.494,0,0
349724,51.1042,-398.553,0,0
351025,51.0033,-395.662,0,0
352327,50.9997,-392.888,0,0
353629,51.0338,-390.195,0,0
354930,50.9849,-387.736,0,0
356232,50.8183,-385.248,0,0
357534,50.7291,-382.57,0,0
358835,50.8899,-380.048,0,0
360137,51.0332,-377.807,0,0
361438,50.9465,-375.684,0,0
362740.1,50.6612,-373.512,0,0
364041.725,50.3375,-371.203,0,0
365343.35,50.0684,-368.807,0,0
366644.975,49.9176,-366.299,0,0
367946.6,49.7708,-363.884,0,0
369248.225,49.7083,-361.444,0,0
370549.85,49.769,-358.975,0,0
371851.475,49.97,-356.62,0,0
373153.1,50.3535,-354.468,0,0
374454.725,50.5442,-352.822,0,0
375756.35,50.1853,-351.201,0,0
377057.975,49.6288,-349.241,0,0
378359.6,49.1704,-347.118,0,0
379661,48.5646,-344.975,0,0
380963,47.9119,-342.476,0,0
382264,47.5117,-339.582,0,0
383566,47.8586,-336.843,0,0
384868,47.9655,-334.936,0,0
386169,47.5827,-332.748,0,0
387471,47.2223,-330.373,0,0
388773,46.9029,-327.811,0,0
390074,46.7338,-325.168,0,0
391376,46.6186,-322.531,0,0
392677,46.6149,-319.888,0,0
393979,46.6108,-317.212,0,0
395280.7,46.7115,-314.534,0,0
396582.325,46.8291,-311.846,0,0
397883.95,47.0565,-309.154,0,0
399185.575,47.332,-306.436,0,0
400006.6,47.5088,-304.758,0,0