File: Accelerated corrosion test data/2025-10-02_06-00-03/sample_3.csv
Frequency (Hz),Impedance (ohms),Phase (Radians),Temperature (C),Humidity (%)
10000.0,254.69,-11763.5,0,0
11301.625,226.728,-10419.9,0,0
12603.25,206.004,-9351.75,0,0
13904.875,187.707,-8481.7,0,0
15206.5,175.1,-7753.7,0,0
16508.125,164.589,-7160.18,0,0
17809.75,159.787,-6632.85,0,0
19111.375,148.206,-6180.9,0,0
20413.0,159.635,-5780.49,0,0
21714.625,140.352,-5462.24,0,0
23016.25,129.431,-5157.25,0,0
24317.875,120.638,-4878.32,0,0
25619.5,115.038,-4632,0,0
26921.1,110.033,-4402.24,0,0
28222.7,105.207,-4196.3,0,0
29524.4,111.073,-4017.5,0,0
30826,102.236,-3846.88,0,0
32127.6,102.739,-3683.8,0,0
33429.2,101.158,-3558.6,0,0
34730.9,89.1145,-3421.73,0,0
36032.5,84.5788,-3294.22,0,0
37334.1,81.6319,-3176.55,0,0
38635.7,79.1556,-3066.71,0,0
39937.4,76.8431,-2964.7,0,0
41239,75.4744,-2867.82,0,0
42540.6,74.246,-2778.45,0,0
43842.225,72.7352,-2693.03,0,0
45143.85,71.4589,-2613.62,0,0
46445.475,71.0921,-2537.87,0,0
47747.1,71.0657,-2465.21,0,0
49048.725,69.5439,-2400.33,0,0
50350.35,67.5053,-2335.2,0,0
51651.975,67.329,-2272.81,0,0
52953.6,67.5542,-2213.03,0,0
54255.225,70.1528,-2158.54,0,0
55556.85,67.8473,-2111.14,0,0
56858.475,62.551,-2058.34,0,0
58160.1,62.0768,-2006.44,0,0
59461.7,62.6314,-1957.39,0,0
60763.3,63.9788,-1910.71,0,0
62065,66.0185,-1866.18,0,0
63366.6,69.4636,-1822.8,0,0
64668.2,78.0834,-1781.34,0,0
65969.8,92.8031,-1755.06,0,0
67271.5,77.3641,-1730.57,0,0
68573.1,76.8953,-1693.26,0,0
69874.7,76.4938,-1663.93,0,0
71176.3,71.3173,-1633.28,0,0
72478,69.852,-1600.72,0,0
73779.6,68.2632,-1572.37,0,0
75081.2,64.669,-1544.13,0,0
76382.825,61.1372,-1514.98,0,0
77684.45,58.7478,-1486.13,0,0
78986.075,56.5567,-1457.7,0,0
80287.7,55.0466,-1429.69,0,0
81589.325,53.9897,-1402.54,0,0
82890.95,53.4634,-1376.14,0,0
84192.575,53.1558,-1350.48,0,0
85494.2,53.0173,-1325.51,0,0
86795.825,53.194,-1301.17,0,0
88097.45,53.8036,-1277.24,0,0
89399.075,54.9399,-1253.51,0,0
90700.7,57.2297,-1231.4,0,0
92002.3,59.9859,-1210.34,0,0
93303.9,63.5279,-1191.75,0,0
94605.6,65.3314,-1177.3,0,0
95907.2,59.6166,-1160.16,0,0
97208.8,58.6864,-1139.16,0,0
98510.4,58.8203,-1120.29,0,0
99812.1,58.005,-1102.03,0,0
101114,57.0297,-1082.6,0,0
102415,58.0911,-1062.05,0,0
103717,62.0891,-1044.21,0,0
105019,66.221,-1030.54,0,0
106320.175,64.4584,-1017.99,0,0
107621.8,61.138,-1002.12,0,0
108923.425,59.0002,-984.067,0,0
110225.05,58.9025,-965.123,0,0
111526.675,61.2899,-947.136,0,0
112828.3,63.3962,-930.988,0,0
114129.925,64.9881,-914.703,0,0
115431.55,67.3406,-898.182,0,0
116733.175,71.0301,-881.611,0,0
118034.8,76.6665,-865.991,0,0
119336.425,83.6464,-854.313,0,0
120638.05,88.5777,-847.974,0,0
121939.675,86.5456,-839.002,0,0
123241,86.8742,-826.047,0,0
124543,88.2385,-814.756,0,0
125845,89.2246,-804.611,0,0
127146,88.5551,-794.737,0,0
128448,86.5643,-783.655,0,0
129749,85.0217,-770.404,0,0
131051,85.8933,-757.142,0,0
132353,85.4204,-745.923,0,0
133654,84.8141,-733.637,0,0
134956,83.6406,-720.901,0,0
136258,82.4893,-707.248,0,0
137559,82.5988,-692.26,0,0
138860.775,84.0342,-678.812,0,0
140162.4,83.3296,-665.524,0,0
141464.025,83.2369,-650.947,0,0
142765.65,82.7871,-635.4,0,0
144067.275,83.0842,-618.285,0,0
145368.9,84.6916,-600.509,0,0
146670.525,87.2371,-581.719,0,0
147972.15,91.6849,-561.979,0,0
149273.775,98.2131,-541.614,0,0
150575.4,108.156,-521.188,0,0
151877.025,121.182,-504.054,0,0
153178.65,134.069,-489.886,0,0
154480,144.832,-477.345,0,0
155782,153.442,-461.931,0,0
157084,165.158,-445.563,0,0
158385,180.833,-432.095,0,0
159687,189.036,-417.917,0,0
160988,201.698,-391.041,0,0
162290,229.186,-364.512,0,0
163592,267.971,-346.498,0,0
164893,313.625,-337.701,0,0
166195,366.048,-352.057,0,0
167497,401.956,-382.411,0,0
168798,422.509,-419.426,0,0
170100,428.327,-456.1,0,0
171401.375,413.298,-476.775,0,0
172703.0,407.993,-481.473,0,0
174004.625,413.078,-486.331,0,0
175306.25,421.077,-507.417,0,0
176607.875,410.566,-529.516,0,0
177909.5,392.532,-544.994,0,0
179211.125,366.492,-539.671,0,0
180512.75,357.751,-524.674,0,0
181814.375,362.73,-519.705,0,0
183116.0,356.569,-527.461,0,0
184417.625,341.29,-523.428,0,0
185719.25,328.518,-509.417,0,0
187021,322.242,-488.535,0,0
188322,327.429,-468.648,0,0
189624,333.797,-454.854,0,0
190926,343.249,-439.36,0,0
192227,352.514,-425.993,0,0
193529,363.95,-409.38,0,0
194831,385.759,-390.323,0,0
196132,418.996,-387.435,0,0
197434,442.63,-398.505,0,0
198735,452.137,-408.511,0,0
200037,459.85,-407.024,0,0
201339,468.769,-405.405,0,0
202640.35,482.455,-396.999,0,0
203941.975,509.569,-390.92,0,0
205243.6,541.513,-398.158,0,0
206545.225,560.483,-417.104,0,0
207846.85,575.015,-423.369,0,0
209148.475,601.626,-427.145,0,0
210450.1,636.206,-444.506,0,0
211751.725,665.003,-473.749,0,0
213053.35,687.831,-507.289,0,0
214354.975,707.125,-548.877,0,0
215656.6,715.474,-594.603,0,0
216958.225,717.516,-641.823,0,0
218259.85,706.183,-690.403,0,0
219561,683.875,-731.7,0,0
220863,666.205,-766.202,0,0
222165,635.074,-807.139,0,0
223466,591.443,-834.367,0,0
224768,547.699,-840.242,0,0
226070,521.422,-836.944,0,0
227371,504.006,-845.29,0,0
228673,479.831,-856.304,0,0
229974,450.365,-864.457,0,0
231276,420.111,-865.933,0,0
232578,392.999,-862.305,0,0
233879,368.832,-858.016,0,0
235180.95,345.624,-853.237,0,0
236482.575,321.895,-847.522,0,0
237784.2,297.958,-838.137,0,0
239085.825,274.817,-824.85,0,0
240387.45,256.154,-806.821,0,0
241689.075,242.867,-788.295,0,0
242990.7,233.931,-770.054,0,0
244292.325,228.891,-754.392,0,0
245593.95,223.94,-742.338,0,0
246895.575,219.227,-730.061,0,0
248197.2,215.072,-718.029,0,0
249498.825,214.138,-706.179,0,0
250800,213.889,-698.643,0,0
252102,209.476,-693.485,0,0
253404,201.719,-684.165,0,0
254705,196.522,-669.481,0,0
256007,196.602,-652.544,0,0
257309,204.308,-637.474,0,0
258610,214.377,-629.402,0,0
259912,224.413,-622.11,0,0
261213,239.491,-621.878,0,0
262515,251.341,-631.908,0,0
263817,252.52,-646.825,0,0
265118,244.74,-659.352,0,0
266420,229.89,-665.674,0,0
267721.55,214.741,-662.746,0,0
269023.175,204.258,-654.442,0,0
270324.8,198.282,-644.659,0,0
271626.425,195.642,-635.483,0,0
272928.05,195.645,-627.649,0,0
274229.675,195.33,-621.369,0,0
275531.3,197.416,-613.719,0,0
276832.925,203.43,-607.924,0,0
278134.55,211.939,-608.537,0,0
279436.175,216.592,-615.467,0,0
280737.8,213.528,-623.791,0,0
282039.425,207.114,-627.73,0,0
283341,199.379,-629.945,0,0
284643,191.107,-628.491,0,0
285944,183.476,-625.232,0,0
287246,177.141,-618.887,0,0
288548,175.466,-611.552,0,0
289849,176.49,-607.862,0,0
291151,175.538,-606.641,0,0
292452,172.872,-604.994,0,0
293754,170.529,-601.266,0,0
295056,171.226,-597.775,0,0
296357,173.102,-597.729,0,0
297659,172.676,-600.407,0,0
298960.525,168.927,-603.691,0,0
300262.15,163.102,-604.98,0,0
301563.775,156.508,-604.857,0,0
302865.4,149.486,-602.88,0,0
304167.025,143.163,-599.35,0,0
305468.65,137.747,-594.638,0,0
306770.275,133.57,-589.505,0,0
308071.9,130.943,-584.262,0,0
309373.525,129.344,-580.588,0,0
310675.15,126.668,-577.978,0,0
311976.775,123.075,-574.844,0,0
313278.4,118.864,-570.942,0,0
314580,115.205,-564.976,0,0
315882,113.877,-558.195,0,0
317183,114.731,-552.804,0,0
318485,115.805,-549.672,0,0
319787,115.908,-547.269,0,0
321088,115.645,-544.762,0,0
322390,116.216,-542.728,0,0
323691,116.612,-542.429,0,0
324993,115.311,-543.264,0,0
326295,112.058,-543.658,0,0
327596,107.831,-542.844,0,0
328898,103.651,-540.687,0,0
330200,99.7536,-538.361,0,0
331501.125,95.5699,-535.74,0,0
332802.75,91.031,-532.223,0,0
334104.375,86.6236,-527.889,0,0
335406.0,82.7063,-522.336,0,0
336707.625,79.8721,-516.202,0,0
338009.25,78.1319,-510.04,0,0
339310.875,76.895,-503.782,0,0
340612.5,76.9472,-497.089,0,0
341914.125,78.8108,-491.405,0,0
343215.75,81.318,-487.619,0,0
344517.375,82.9547,-485.656,0,0
345819.0,83.192,-483.967,0,0
347121,82.5602,-481.817,0,0
348422,81.8535,-478.836,0,0
349724,81.7305,-475.469,0,0
351025,82.4917,-472.255,0,0
352327,83.838,-470.471,0,0
353629,83.9479,-470.013,0,0
354930,82.219,-469.196,0,0
356232,80.1032,-466.777,0,0
357534,78.6528,-463.789,0,0
358835,77.5011,-460.573,0,0
360137,76.8102,-456.997,0,0
361438,76.6819,-453.532,0,0
362740.1,76.9406,-450.407,0,0
364041.725,77.6221,-447.326,0,0
365343.35,79.0504,-445.102,0,0
366644.975,79.7992,-444.845,0,0
367946.6,77.8889,-444.534,0,0
369248.225,75.0746,-441.741,0,0
370549.85,74.4579,-436.838,0,0
371851.475,76.3542,-433.866,0,0
373153.1,76.9789,-433.207,0,0
374454.725,75.6725,-432.002,0,0
375756.35,73.9951,-429.529,0,0
377057.975,73.0398,-425.931,0,0
378359.6,73.5188,-422.335,0,0
379661,74.478,-419.705,0,0
380963,75.245,-417.759,0,0
382264,75.895,-416.226,0,0
383566,75.9741,-415.284,0,0
384868,75.0624,-414.139,0,0
386169,73.6433,-412.162,0,0
387471,72.4072,-409.368,0,0
388773,71.6471,-406.088,0,0
390074,71.4394,-402.437,0,0
391376,72.1639,-398.611,0,0
392677,73.7948,-395.232,0,0
393979,76.157,-392.76,0,0
395280.7,78.4882,-391.487,0,0
396582.325,80.4256,-391.182,0,0
397883.95,81.5402,-391.568,0,0
399185.575,81.3851,-392.356,0,0
400006.6,80.6866,-392.461,0,0