File: Accelerated corrosion test data/2025-10-02_06-00-03/sample_1.csv
Frequency (Hz),Impedance (ohms),Phase (Radians),Temperature (C),Humidity (%)
10000.0,240.531,-12236.2,0,0
11301.625,214.701,-10838.4,0,0
12603.25,200.189,-9736.3,0,0
13904.875,186.777,-8809.5,0,0
15206.5,182.145,-8079.02,0,0
16508.125,158.153,-7448.22,0,0
17809.75,151.417,-6912.95,0,0
19111.375,136.361,-6440.62,0,0
20413.0,156.437,-5997.97,0,0
21714.625,138.744,-5684.21,0,0
23016.25,123.221,-5375.65,0,0
24317.875,112.971,-5082.56,0,0
25619.5,104.771,-4817.98,0,0
26921.1,114.49,-4569.35,0,0
28222.7,111.309,-4364.44,0,0
29524.4,107.813,-4197,0,0
30826,101.285,-4010.38,0,0
32127.6,98.9986,-3850.89,0,0
33429.2,88.9643,-3707.04,0,0
34730.9,82.6017,-3565.05,0,0
36032.5,78.4115,-3433.62,0,0
37334.1,75.5446,-3310.94,0,0
38635.7,73.2052,-3197.27,0,0
39937.4,71.4836,-3090.12,0,0
41239,72.4953,-2990.7,0,0
42540.6,71.5255,-2898.87,0,0
43842.225,68.0369,-2811.05,0,0
45143.85,69.0379,-2729.3,0,0
46445.475,66.0102,-2653.13,0,0
47747.1,64.4565,-2579.32,0,0
49048.725,62.0392,-2508.82,0,0
50350.35,60.2713,-2442.1,0,0
51651.975,59.0204,-2378.29,0,0
52953.6,58.0963,-2317.1,0,0
54255.225,57.3278,-2259.96,0,0
55556.85,56.4368,-2204.48,0,0
56858.475,55.1415,-2151.49,0,0
58160.1,54.9901,-2100.72,0,0
59461.7,54.7723,-2052.62,0,0
60763.3,54.8749,-2006.45,0,0
62065,53.6232,-1962.41,0,0
63366.6,52.8888,-1918.67,0,0
64668.2,53.4905,-1876.58,0,0
65969.8,55.7255,-1838.7,0,0
67271.5,54.0226,-1801.71,0,0
68573.1,53.556,-1766.17,0,0
69874.7,52.4831,-1731.98,0,0
71176.3,50.8698,-1697.48,0,0
72478,49.2182,-1663.83,0,0
73779.6,48.6155,-1630.21,0,0
75081.2,49.0549,-1597.98,0,0
76382.825,49.9455,-1566.81,0,0
77684.45,50.4895,-1537.2,0,0
78986.075,52.3481,-1509.49,0,0
80287.7,51.4948,-1483.08,0,0
81589.325,51.2868,-1455.4,0,0
82890.95,51.4573,-1428.26,0,0
84192.575,53.2729,-1401.96,0,0
85494.2,55.0495,-1377.55,0,0
86795.825,56.2731,-1353.8,0,0
88097.45,56.787,-1330.68,0,0
89399.075,58.038,-1306.01,0,0
90700.7,61.8881,-1282.58,0,0
92002.3,68.2231,-1260.91,0,0
93303.9,76.009,-1243.78,0,0
94605.6,74.9192,-1236.62,0,0
95907.2,68.0317,-1218.65,0,0
97208.8,65.079,-1198.05,0,0
98510.4,64.597,-1177.95,0,0
99812.1,63.9249,-1157.38,0,0
101114,64.1593,-1138.02,0,0
102415,63.791,-1116.02,0,0
103717,68.1648,-1094.77,0,0
105019,75.012,-1076.69,0,0
106320.175,81.4066,-1060.64,0,0
107621.8,87.8766,-1048.25,0,0
108923.425,92.8058,-1037.08,0,0
110225.05,94.4583,-1027.84,0,0
111526.675,95.3083,-1016.07,0,0
112828.3,97.7118,-1006.36,0,0
114129.925,97.1619,-999.006,0,0
115431.55,93.1525,-990.097,0,0
116733.175,87.7055,-977.655,0,0
118034.8,83.5992,-962.957,0,0
119336.425,82.2166,-947.294,0,0
120638.05,82.4092,-933.111,0,0
121939.675,81.3408,-920.573,0,0
123241,79.6008,-905.928,0,0
124543,79.5692,-890.802,0,0
125845,80.2472,-876.206,0,0
127146,81.1803,-861.825,0,0
128448,83.0358,-846.627,0,0
129749,86.1348,-832.24,0,0
131051,91.1554,-819.066,0,0
132353,95.4282,-808.23,0,0
133654,98.9533,-797.905,0,0
134956,101.308,-787.745,0,0
136258,104.638,-776.783,0,0
137559,109.304,-767.148,0,0
138860.775,111.948,-761.491,0,0
140162.4,111.041,-753.458,0,0
141464.025,110.768,-742.772,0,0
142765.65,111.844,-732.033,0,0
144067.275,112.368,-721.306,0,0
145368.9,114.608,-709.225,0,0
146670.525,117.913,-698.611,0,0
147972.15,121.227,-689.593,0,0
149273.775,122.625,-680.421,0,0
150575.4,123.873,-671.1,0,0
151877.025,123.1,-659.999,0,0
153178.65,123.581,-645.652,0,0
154480,125.841,-629.58,0,0
155782,133.889,-611.726,0,0
157084,145.645,-597.4,0,0
158385,157.82,-588.011,0,0
159687,168.968,-576.429,0,0
160988,185.788,-567.009,0,0
162290,201.995,-565.014,0,0
163592,216.554,-565.142,0,0
164893,228.556,-567.054,0,0
166195,243.051,-574.277,0,0
167497,248.195,-587.183,0,0
168798,246.402,-597.359,0,0
170100,238.913,-603.081,0,0
171401.375,232.668,-602.082,0,0
172703.0,226.548,-599.753,0,0
174004.625,222.343,-593.628,0,0
175306.25,222.822,-587.642,0,0
176607.875,221.853,-585.988,0,0
177909.5,218.848,-582.626,0,0
179211.125,216.898,-579.564,0,0
180512.75,211.207,-577.388,0,0
181814.375,203.405,-571.189,0,0
183116.0,194.156,-560.589,0,0
184417.625,189.258,-545.296,0,0
185719.25,187.865,-529.528,0,0
187021,189.154,-514.197,0,0
188322,191.455,-499.659,0,0
189624,194.385,-483.11,0,0
190926,200.576,-467.223,0,0
192227,207.679,-451.775,0,0
193529,214.882,-435.817,0,0
194831,224.893,-418.413,0,0
196132,238.262,-400.442,0,0
197434,255.125,-382.624,0,0
198735,274.436,-368.223,0,0
200037,294.805,-352.796,0,0
201339,320.661,-335.226,0,0
202640.35,355.141,-321.193,0,0
203941.975,397.358,-313.263,0,0
205243.6,449.197,-319.036,0,0
206545.225,495.699,-345.945,0,0
207846.85,527.141,-385.435,0,0
209148.475,542.078,-426.537,0,0
210450.1,539.918,-461.817,0,0
211751.725,530.334,-481.417,0,0
213053.35,531.083,-486.467,0,0
214354.975,541.983,-496.198,0,0
215656.6,553.044,-513.994,0,0
216958.225,557.003,-527.964,0,0
218259.85,571.298,-540.809,0,0
219561,586.334,-559.351,0,0
220863,603.836,-584.237,0,0
222165,619.746,-620.463,0,0
223466,626.665,-665.869,0,0
224768,619.913,-714.879,0,0
226070,601.414,-763.428,0,0
227371,569.479,-807.131,0,0
228673,526.552,-838.214,0,0
229974,481.473,-856.531,0,0
231276,437.684,-861.801,0,0
232578,401.718,-858.379,0,0
233879,372.229,-853.381,0,0
235180.95,346.781,-847.443,0,0
236482.575,322.921,-841.064,0,0
237784.2,302.689,-834.721,0,0
239085.825,280.748,-828.975,0,0
240387.45,259.102,-818.963,0,0
241689.075,241.097,-806.462,0,0
242990.7,226.465,-793.509,0,0
244292.325,214.353,-782.002,0,0
245593.95,202.282,-771.368,0,0
246895.575,190.621,-759.565,0,0
248197.2,180.672,-747.307,0,0
249498.825,171.981,-734.949,0,0
250800,164.592,-722.764,0,0
252102,158.117,-710.656,0,0
253404,152.384,-698.426,0,0
254705,147.786,-685.285,0,0
256007,145.519,-672.605,0,0
257309,144.172,-660.638,0,0
258610,144.266,-648.8,0,0
259912,146.196,-637.611,0,0
261213,149.99,-628.177,0,0
262515,154.313,-621.02,0,0
263817,159.274,-614.765,0,0
265118,165.778,-611.106,0,0
266420,172.156,-611.727,0,0
267721.55,175.692,-617.281,0,0
269023.175,171.172,-624.54,0,0
270324.8,160.859,-625.952,0,0
271626.425,151.275,-621.089,0,0
272928.05,145.01,-613.069,0,0
274229.675,141.893,-604.712,0,0
275531.3,140.86,-596.731,0,0
276832.925,141.206,-589.615,0,0
278134.55,143.301,-584.004,0,0
279436.175,145.848,-580.418,0,0
280737.8,147.18,-579.498,0,0
282039.425,146.106,-578.629,0,0
283341,143.88,-577.32,0,0
284643,140.975,-574.819,0,0
285944,137.066,-571.513,0,0
287246,133.032,-566.247,0,0
288548,130.7,-558.037,0,0
289849,132.962,-550.239,0,0
291151,135.758,-546.714,0,0
292452,136.223,-543.826,0,0
293754,135.713,-539.762,0,0
295056,135.462,-534.117,0,0
296357,137.9,-526.841,0,0
297659,143.061,-521.989,0,0
298960.525,148.059,-518.921,0,0
300262.15,153.74,-516.671,0,0
301563.775,159.558,-516.129,0,0
302865.4,165.536,-517.522,0,0
304167.025,170.363,-520.563,0,0
305468.65,173.429,-524.754,0,0
306770.275,176.119,-529.118,0,0
308071.9,177.854,-535.096,0,0
309373.525,177.033,-541.806,0,0
310675.15,174.727,-548.055,0,0
311976.775,170.827,-554.094,0,0
313278.4,164.638,-559.264,0,0
314580,157.636,-562.517,0,0
315882,150.433,-564.55,0,0
317183,142.48,-565.666,0,0
318485,134.267,-564.832,0,0
319787,126.947,-562.808,0,0
321088,119.475,-559.988,0,0
322390,112.488,-555.388,0,0
323691,107.249,-549.497,0,0
324993,104.153,-543.471,0,0
326295,102.492,-538.567,0,0
327596,101.326,-534.763,0,0
328898,100.205,-532.016,0,0
330200,98.486,-529.986,0,0
331501.125,96.4202,-528.163,0,0
332802.75,93.684,-526.759,0,0
334104.375,90.1834,-524.839,0,0
335406.0,86.4967,-522.25,0,0
336707.625,82.7366,-519.005,0,0
338009.25,79.3152,-515.538,0,0
339310.875,75.94,-511.639,0,0
340612.5,73.1396,-507.229,0,0
341914.125,70.9492,-503.007,0,0
343215.75,68.8368,-498.921,0,0
344517.375,66.6761,-494.967,0,0
345819.0,64.4905,-490.704,0,0
347121,62.6167,-486.134,0,0
348422,61.0904,-481.492,0,0
349724,60.0397,-476.796,0,0
351025,59.421,-472.266,0,0
352327,58.852,-468.123,0,0
353629,58.3066,-463.98,0,0
354930,57.8271,-459.758,0,0
356232,57.7751,-455.595,0,0
357534,57.9427,-451.685,0,0
358835,58.0204,-448.061,0,0
360137,58.1125,-444.339,0,0
361438,58.457,-440.69,0,0
362740.1,58.6985,-437.273,0,0
364041.725,58.9229,-433.826,0,0
365343.35,59.0825,-430.279,0,0
366644.975,59.578,-426.599,0,0
367946.6,60.0863,-422.841,0,0
369248.225,60.909,-418.535,0,0
370549.85,62.9089,-414.177,0,0
371851.475,65.7812,-410.621,0,0
373153.1,69.0433,-408.054,0,0
374454.725,72.2914,-406.568,0,0
375756.35,74.8273,-405.925,0,0
377057.975,76.9067,-405.288,0,0
378359.6,78.8838,-405.026,0,0
379661,80.5285,-405.079,0,0
380963,82.0753,-405.302,0,0
382264,83.7341,-406.474,0,0
383566,83.9841,-408.734,0,0
384868,82.6019,-410.705,0,0
386169,80.2059,-411.691,0,0
387471,77.2556,-411.717,0,0
388773,74.2941,-410.387,0,0
390074,72.2704,-408.308,0,0
391376,70.9836,-406.657,0,0
392677,69.398,-405.492,0,0
393979,67.094,-404.109,0,0
395280.7,64.4303,-401.807,0,0
396582.325,62.1969,-398.775,0,0
397883.95,60.5324,-395.302,0,0
399185.575,59.3171,-391.705,0,0
400006.6,58.7754,-389.405,0,0