File: Accelerated corrosion test data/2025-10-17_18-00-03/sample_7.csv
Frequency (Hz),Impedance (ohms),Phase (Radians),Temperature (C),Humidity (%)
10000.0,274.014,-12108.4,0,0
11301.625,247.513,-10711.3,0,0
12603.25,258.197,-9658.59,0,0
13904.875,209.542,-8763.72,0,0
15206.5,195.971,-8024.99,0,0
16508.125,171.531,-7383.13,0,0
17809.75,170.066,-6827.6,0,0
19111.375,179.901,-6382.64,0,0
20413.0,169.509,-5992.34,0,0
21714.625,157.76,-5650.42,0,0
23016.25,130.692,-5325.91,0,0
24317.875,123.009,-5031.94,0,0
25619.5,119.063,-4767.14,0,0
26921.1,122.142,-4522.35,0,0
28222.7,178.41,-4307.76,0,0
29524.4,140.269,-4180.54,0,0
30826,132.394,-3994.3,0,0
32127.6,118.249,-3846.97,0,0
33429.2,101.851,-3696.49,0,0
34730.9,92.9488,-3551.38,0,0
36032.5,88.5135,-3417.28,0,0
37334.1,86.27,-3293.29,0,0
38635.7,86.8041,-3175.91,0,0
39937.4,98.7985,-3076.15,0,0
41239,86.9879,-2989.29,0,0
42540.6,80.1351,-2893.25,0,0
43842.225,79.012,-2803.78,0,0
45143.85,80.2395,-2725.72,0,0
46445.475,77.3856,-2653.73,0,0
47747.1,70.8939,-2577.15,0,0
49048.725,68.1344,-2506.82,0,0
50350.35,66.2111,-2439.39,0,0
51651.975,64.634,-2375.76,0,0
52953.6,63.7771,-2315.14,0,0
54255.225,62.3616,-2258.42,0,0
55556.85,61.0472,-2203.63,0,0
56858.475,60.2551,-2151.18,0,0
58160.1,59.3279,-2100.55,0,0
59461.7,59.4319,-2052.99,0,0
60763.3,59.0818,-2009.26,0,0
62065,57.0146,-1965.73,0,0
63366.6,55.7179,-1922.86,0,0
64668.2,55.0079,-1882.34,0,0
65969.8,55.0023,-1843.69,0,0
67271.5,53.2289,-1806.88,0,0
68573.1,52.1435,-1770.08,0,0
69874.7,51.4759,-1734.71,0,0
71176.3,51.3488,-1700.94,0,0
72478,50.2519,-1668.73,0,0
73779.6,49.469,-1636.88,0,0
75081.2,48.9365,-1606.07,0,0
76382.825,48.3589,-1576.17,0,0
77684.45,48.1182,-1547.35,0,0
78986.075,47.7686,-1519.37,0,0
80287.7,47.612,-1492.28,0,0
81589.325,47.278,-1465.91,0,0
82890.95,46.9975,-1440.34,0,0
84192.575,46.9945,-1415.12,0,0
85494.2,47.2685,-1391.05,0,0
86795.825,47.2405,-1367.57,0,0
88097.45,47.3976,-1344.99,0,0
89399.075,46.9219,-1322.63,0,0
90700.7,47.1322,-1300.35,0,0
92002.3,47.4578,-1278.48,0,0
93303.9,48.0262,-1257.39,0,0
94605.6,50.1136,-1237.42,0,0
95907.2,49.9416,-1219.72,0,0
97208.8,49.2983,-1200.09,0,0
98510.4,50.2001,-1180.71,0,0
99812.1,49.8473,-1162.03,0,0
101114,51.3083,-1142.85,0,0
102415,52.8599,-1124.87,0,0
103717,55.7595,-1108.13,0,0
105019,56.6289,-1092.91,0,0
106320.175,56.179,-1076.91,0,0
107621.8,57.0258,-1060.51,0,0
108923.425,58.1488,-1044.18,0,0
110225.05,58.7074,-1027.43,0,0
111526.675,61.7877,-1010.54,0,0
112828.3,66.5343,-994.327,0,0
114129.925,71.5569,-980.231,0,0
115431.55,77.8162,-967.405,0,0
116733.175,86.1668,-958.576,0,0
118034.8,89.9798,-953.98,0,0
119336.425,93.1248,-951.382,0,0
120638.05,86.0546,-951.796,0,0
121939.675,75.2077,-941.672,0,0
123241,67.584,-928.457,0,0
124543,63.2804,-913.864,0,0
125845,59.148,-899.914,0,0
127146,55.8437,-885.273,0,0
128448,54.0238,-870.292,0,0
129749,52.4403,-855.69,0,0
131051,51.1841,-841.384,0,0
132353,50.4056,-825.952,0,0
133654,50.7814,-810.384,0,0
134956,53.4711,-795.402,0,0
136258,57.8593,-782.657,0,0
137559,58.6305,-774.74,0,0
138860.775,56.0885,-762.396,0,0
140162.4,56.3362,-748.535,0,0
141464.025,56.2351,-734.999,0,0
142765.65,57.3442,-720.523,0,0
144067.275,60.1208,-706.966,0,0
145368.9,61.907,-694.837,0,0
146670.525,62.9721,-681.794,0,0
147972.15,64.5761,-668.338,0,0
149273.775,65.1447,-655.529,0,0
150575.4,65.5067,-639.869,0,0
151877.025,67.5255,-622.439,0,0
153178.65,71.7325,-604.366,0,0
154480,77.6938,-586.125,0,0
155782,86.1193,-567.679,0,0
157084,97.2029,-550.183,0,0
158385,111.019,-535.87,0,0
159687,121.886,-526.585,0,0
160988,126.218,-513.368,0,0
162290,134.323,-489.533,0,0
163592,152.281,-464.371,0,0
164893,179.076,-443.42,0,0
166195,208.252,-422.299,0,0
167497,255.277,-404.403,0,0
168798,315.842,-406.607,0,0
170100,373.54,-437.261,0,0
171401.375,413,-492.373,0,0
172703.0,428.137,-558.199,0,0
174004.625,399.802,-624.238,0,0
175306.25,349.827,-643.393,0,0
176607.875,324.219,-633.216,0,0
177909.5,329.709,-629.826,0,0
179211.125,334.378,-664.792,0,0
180512.75,302.133,-688.692,0,0
181814.375,263.916,-702.63,0,0
183116.0,220.013,-695.844,0,0
184417.625,188.464,-674.15,0,0
185719.25,168.749,-651.292,0,0
187021,153.14,-623.98,0,0
188322,149.048,-598.719,0,0
189624,143.216,-580.189,0,0
190926,137.133,-558.277,0,0
192227,135.859,-534.062,0,0
193529,137.234,-509.363,0,0
194831,142.913,-484.77,0,0
196132,153.69,-463.048,0,0
197434,165.589,-444.796,0,0
198735,174.837,-428.873,0,0
200037,183.457,-408.903,0,0
201339,197.13,-385.922,0,0
202640.35,217.137,-361.014,0,0
203941.975,244.589,-339.299,0,0
205243.6,278.328,-320.204,0,0
206545.225,322.945,-312.748,0,0
207846.85,359.012,-318.12,0,0
209148.475,395.663,-314.243,0,0
210450.1,453.737,-324.462,0,0
211751.725,500.929,-367.861,0,0
213053.35,524.977,-418.744,0,0
214354.975,532.897,-464.68,0,0
215656.6,530.063,-506.536,0,0
216958.225,527.295,-546.952,0,0
218259.85,505.731,-587.312,0,0
219561,471.088,-616.628,0,0
220863,434.62,-619.113,0,0
222165,412.928,-609.388,0,0
223466,406.55,-601.072,0,0
224768,402.829,-597.973,0,0
226070,404.266,-590.529,0,0
227371,415.035,-593.142,0,0
228673,427.111,-604.749,0,0
229974,432.267,-625.821,0,0
231276,430.884,-654.29,0,0
232578,419.934,-682.166,0,0
233879,393.326,-712.362,0,0
235180.95,350.073,-726.156,0,0
236482.575,314.68,-715.596,0,0
237784.2,291.476,-706.271,0,0
239085.825,266.441,-688.727,0,0
240387.45,261.988,-668.606,0,0
241689.075,255.387,-663.41,0,0
242990.7,240.297,-653.636,0,0
244292.325,231.804,-634.983,0,0
245593.95,234.933,-620.65,0,0
246895.575,234.159,-613.344,0,0
248197.2,231.357,-603.001,0,0
249498.825,231.954,-590.979,0,0
250800,236.604,-578.8,0,0
252102,246.264,-569.374,0,0
253404,261.368,-566.51,0,0
254705,272.136,-574.955,0,0
256007,273.698,-586.082,0,0
257309,268.518,-593.449,0,0
258610,262.14,-594.823,0,0
259912,258.251,-595.545,0,0
261213,252.319,-593.334,0,0
262515,250.527,-587.006,0,0
263817,256.959,-584.362,0,0
265118,260.209,-590.58,0,0
266420,257.218,-594.641,0,0
267721.55,256.233,-598,0,0
269023.175,251.688,-601.198,0,0
270324.8,250.246,-599.694,0,0
271626.425,257.182,-601.302,0,0
272928.05,265.946,-620.48,0,0
274229.675,252.072,-649.239,0,0
275531.3,220.103,-666.135,0,0
276832.925,183.074,-661.91,0,0
278134.55,155.527,-641.399,0,0
279436.175,142.658,-617.829,0,0
280737.8,138.745,-597.001,0,0
282039.425,138.209,-583.532,0,0
283341,134.564,-569.851,0,0
284643,135.361,-553.379,0,0
285944,141.561,-540.089,0,0
287246,148.391,-532.543,0,0
288548,151.369,-527.042,0,0
289849,153.931,-519.025,0,0
291151,158.974,-509.924,0,0
292452,166.161,-503.185,0,0
293754,174.064,-497.382,0,0
295056,182.768,-492.687,0,0
296357,193.342,-489.178,0,0
297659,206.161,-488.071,0,0
298960.525,219.644,-491.27,0,0
300262.15,233.322,-497.373,0,0
301563.775,248.449,-508.797,0,0
302865.4,261.689,-531.577,0,0
304167.025,258.533,-561.792,0,0
305468.65,243.412,-583.455,0,0
306770.275,223.613,-597.72,0,0
308071.9,202.594,-604.114,0,0
309373.525,182.18,-603.894,0,0
310675.15,166.304,-598.222,0,0
311976.775,154.432,-592.009,0,0
313278.4,144.188,-585.909,0,0
314580,134.596,-578.266,0,0
315882,128.337,-569.114,0,0
317183,124.872,-561.448,0,0
318485,122.237,-555.28,0,0
319787,120.053,-550.017,0,0
321088,118.019,-545.884,0,0
322390,115.653,-542.163,0,0
323691,113.157,-538.762,0,0
324993,110.347,-535.176,0,0
326295,108.38,-531.601,0,0
327596,106.294,-529.224,0,0
328898,103.228,-526.976,0,0
330200,99.8719,-524.436,0,0
331501.125,96.2509,-521.884,0,0
332802.75,91.9095,-519.301,0,0
334104.375,86.8107,-515.697,0,0
335406.0,81.9142,-510.978,0,0
336707.625,77.3242,-505.578,0,0
338009.25,73.5354,-499.194,0,0
339310.875,70.5821,-492.637,0,0
340612.5,68.2676,-485.907,0,0
341914.125,66.6251,-478.825,0,0
343215.75,66.2408,-471.923,0,0
344517.375,66.7912,-465.621,0,0
345819.0,67.7232,-460.513,0,0
347121,68.2048,-456.423,0,0
348422,67.5532,-452.566,0,0
349724,66.4813,-447.603,0,0
351025,65.8002,-441.895,0,0
352327,66.3701,-435.436,0,0
353629,68.3877,-429.709,0,0
354930,70.9905,-425.323,0,0
356232,73.4856,-422.423,0,0
357534,74.0669,-420.47,0,0
358835,73.2041,-417.176,0,0
360137,72.9047,-412.111,0,0
361438,74.0388,-406.528,0,0
362740.1,76.4248,-401.464,0,0
364041.725,79.3037,-397.105,0,0
365343.35,82.8618,-393.422,0,0
366644.975,86.458,-391.359,0,0
367946.6,89.211,-389.64,0,0
369248.225,91.7866,-388.426,0,0
370549.85,93.6841,-388.246,0,0
371851.475,93.3983,-387.87,0,0
373153.1,92.6449,-385.254,0,0
374454.725,93.3497,-381.7,0,0
375756.35,94.9143,-378.735,0,0
377057.975,96.1803,-376.414,0,0
378359.6,97.0523,-373.262,0,0
379661,98.9768,-369.762,0,0
380963,101.394,-366.837,0,0
382264,103.767,-364.113,0,0
383566,106.521,-361.51,0,0
384868,109.568,-359.237,0,0
386169,112.242,-357.472,0,0
387471,114.934,-355.387,0,0
388773,117.695,-352.619,0,0
390074,122.329,-349.783,0,0
391376,127.473,-348.78,0,0
392677,132.069,-348.471,0,0
393979,136.166,-348.309,0,0
395280.7,140.701,-347.3,0,0
396582.325,147.185,-346.508,0,0
397883.95,155.761,-347.817,0,0
399185.575,165.147,-353.114,0,0
400006.6,170.219,-359.167,0,0