File: Accelerated corrosion test data/2025-10-17_18-00-03/sample_3.csv
Frequency (Hz),Impedance (ohms),Phase (Radians),Temperature (C),Humidity (%)
10000.0,250.476,-11884.8,0,0
11301.625,223.029,-10526.8,0,0
12603.25,202.167,-9447.33,0,0
13904.875,185.294,-8567.27,0,0
15206.5,172.816,-7830.89,0,0
16508.125,160.894,-7231.6,0,0
17809.75,156.129,-6698.54,0,0
19111.375,146.275,-6245,0,0
20413.0,159.336,-5839.37,0,0
21714.625,138.743,-5516.88,0,0
23016.25,127.914,-5208.59,0,0
24317.875,119.246,-4927.7,0,0
25619.5,113.334,-4678.58,0,0
26921.1,108.531,-4445.46,0,0
28222.7,103.692,-4237.34,0,0
29524.4,108.593,-4059.84,0,0
30826,101.684,-3885.95,0,0
32127.6,101.19,-3719.52,0,0
33429.2,99.2831,-3595.09,0,0
34730.9,88.1343,-3455.9,0,0
36032.5,83.2417,-3326.93,0,0
37334.1,80.0924,-3208.18,0,0
38635.7,77.6719,-3097.31,0,0
39937.4,75.6121,-2994.02,0,0
41239,74.3298,-2896.12,0,0
42540.6,73.041,-2805.69,0,0
43842.225,71.71,-2719.58,0,0
45143.85,70.8036,-2639.21,0,0
46445.475,69.5457,-2562.76,0,0
47747.1,70.2276,-2489.65,0,0
49048.725,68.5535,-2423.73,0,0
50350.35,66.5499,-2358.18,0,0
51651.975,65.9769,-2294.94,0,0
52953.6,66.2532,-2234.66,0,0
54255.225,69.1821,-2179.32,0,0
55556.85,66.7532,-2131.4,0,0
56858.475,61.6119,-2078.29,0,0
58160.1,61.0495,-2025.95,0,0
59461.7,61.463,-1976.27,0,0
60763.3,62.8647,-1929.45,0,0
62065,64.8033,-1884.2,0,0
63366.6,68.7004,-1840.2,0,0
64668.2,77.3697,-1798.16,0,0
65969.8,92.4462,-1771.82,0,0
67271.5,75.7581,-1746.91,0,0
68573.1,75.9702,-1708.93,0,0
69874.7,76.4238,-1679.45,0,0
71176.3,71.1614,-1648.64,0,0
72478,70.0098,-1615.69,0,0
73779.6,68.5688,-1587.4,0,0
75081.2,64.8483,-1559.29,0,0
76382.825,61.1469,-1529.98,0,0
77684.45,58.4742,-1500.92,0,0
78986.075,56.1331,-1472.19,0,0
80287.7,54.5335,-1443.92,0,0
81589.325,53.47,-1416.44,0,0
82890.95,52.8008,-1389.75,0,0
84192.575,52.4985,-1363.92,0,0
85494.2,52.394,-1338.78,0,0
86795.825,52.5324,-1314.24,0,0
88097.45,53.033,-1290.24,0,0
89399.075,54.343,-1266.25,0,0
90700.7,56.4304,-1244.34,0,0
92002.3,58.623,-1223.5,0,0
93303.9,61.4449,-1204.41,0,0
94605.6,62.2884,-1189.74,0,0
95907.2,57.2301,-1171.57,0,0
97208.8,55.9728,-1150.18,0,0
98510.4,55.7193,-1130.31,0,0
99812.1,55.4049,-1111.14,0,0
101114,55.0781,-1091.27,0,0
102415,56.3842,-1070.63,0,0
103717,60.2833,-1052.89,0,0
105019,63.5416,-1038.42,0,0
106320.175,63.1592,-1024.56,0,0
107621.8,61.1051,-1009.02,0,0
108923.425,59.2058,-991.673,0,0
110225.05,59.1179,-973.15,0,0
111526.675,61.2336,-955.132,0,0
112828.3,63.4855,-938.944,0,0
114129.925,64.8743,-923.076,0,0
115431.55,66.7636,-906.019,0,0
116733.175,70.3983,-889.233,0,0
118034.8,76.305,-872.916,0,0
119336.425,82.9999,-860.553,0,0
120638.05,89.3539,-854.362,0,0
121939.675,86.3011,-846.046,0,0
123241,86.7616,-832.275,0,0
124543,88.4803,-820.642,0,0
125845,90.2678,-810.105,0,0
127146,89.9963,-800.401,0,0
128448,88.5845,-789.87,0,0
129749,87.2338,-777.129,0,0
131051,88.2161,-764.502,0,0
132353,87.3748,-753.398,0,0
133654,86.5524,-741.669,0,0
134956,85.0852,-728.906,0,0
136258,83.5681,-715.633,0,0
137559,83.1242,-700.413,0,0
138860.775,84.5084,-686.698,0,0
140162.4,83.7937,-673.448,0,0
141464.025,83.244,-659.325,0,0
142765.65,82.293,-643.34,0,0
144067.275,82.5639,-626.102,0,0
145368.9,84.1501,-608.067,0,0
146670.525,86.6613,-589.073,0,0
147972.15,90.8926,-569.319,0,0
149273.775,97.2008,-548.916,0,0
150575.4,107.433,-528.625,0,0
151877.025,119.871,-511.273,0,0
153178.65,132.461,-497.6,0,0
154480,142.648,-485.261,0,0
155782,151.031,-469.221,0,0
157084,162.76,-451.697,0,0
158385,179.621,-440.634,0,0
159687,183.089,-426.694,0,0
160988,197.695,-399.104,0,0
162290,223.359,-373.834,0,0
163592,256.192,-351.111,0,0
164893,304.87,-337.859,0,0
166195,355.867,-349.314,0,0
167497,396.859,-377.778,0,0
168798,420.152,-412.811,0,0
170100,422.396,-454.864,0,0
171401.375,409.578,-470.605,0,0
172703.0,407.113,-475.641,0,0
174004.625,415.24,-486.229,0,0
175306.25,417.34,-503.289,0,0
176607.875,416.965,-522.528,0,0
177909.5,393.863,-543.922,0,0
179211.125,368.809,-536.378,0,0
180512.75,363.564,-521.643,0,0
181814.375,369.693,-518.362,0,0
183116.0,363.186,-526.309,0,0
184417.625,347.098,-524.912,0,0
185719.25,332.356,-512.23,0,0
187021,326,-490.374,0,0
188322,330.953,-471.874,0,0
189624,334.48,-456.53,0,0
190926,344.026,-441.113,0,0
192227,352.356,-427.514,0,0
193529,362.952,-407.684,0,0
194831,386.323,-390.97,0,0
196132,417.409,-383.434,0,0
197434,440.539,-393.393,0,0
198735,454.825,-399.009,0,0
200037,465.707,-403.215,0,0
201339,472.795,-397.703,0,0
202640.35,492.834,-388.205,0,0
203941.975,523.302,-388.09,0,0
205243.6,551.706,-401.929,0,0
206545.225,563.449,-416.469,0,0
207846.85,583.509,-415.391,0,0
209148.475,616.93,-423.141,0,0
210450.1,651.023,-445.572,0,0
211751.725,678.977,-477.735,0,0
213053.35,701.044,-512.893,0,0
214354.975,716.668,-556.92,0,0
215656.6,722.771,-603.173,0,0
216958.225,720.411,-648.745,0,0
218259.85,708.582,-692.947,0,0
219561,690.79,-730.774,0,0
220863,671.101,-769.203,0,0
222165,642.868,-807.765,0,0
223466,597.06,-836.715,0,0
224768,554.752,-839.908,0,0
226070,531.545,-839.205,0,0
227371,512.414,-846.745,0,0
228673,486.786,-858.086,0,0
229974,460.194,-863.317,0,0
231276,432.568,-867.112,0,0
232578,405.386,-865.725,0,0
233879,380.943,-862.4,0,0
235180.95,358.395,-857.749,0,0
236482.575,334.648,-853.522,0,0
237784.2,310.316,-846.113,0,0
239085.825,286.133,-832.525,0,0
240387.45,267.994,-816.14,0,0
241689.075,252.572,-798.593,0,0
242990.7,243.167,-780.284,0,0
244292.325,237.895,-765.41,0,0
245593.95,231.813,-753.669,0,0
246895.575,225.978,-740.968,0,0
248197.2,221.58,-728.716,0,0
249498.825,220.882,-716.96,0,0
250800,219.735,-710.838,0,0
252102,213.707,-705.035,0,0
253404,205.601,-694.831,0,0
254705,200.344,-680.094,0,0
256007,199.976,-663.485,0,0
257309,206.959,-648.876,0,0
258610,214.603,-639.632,0,0
259912,226.062,-630.38,0,0
261213,242.855,-630.284,0,0
262515,253.895,-642.842,0,0
263817,252.987,-657.735,0,0
265118,243.087,-669.088,0,0
266420,228.637,-673.153,0,0
267721.55,214.012,-669.606,0,0
269023.175,203.861,-660.721,0,0
270324.8,197.84,-650.971,0,0
271626.425,195.848,-641.343,0,0
272928.05,195.072,-634.623,0,0
274229.675,194.329,-625.873,0,0
275531.3,197.539,-617.631,0,0
276832.925,204.711,-612.169,0,0
278134.55,212.699,-613.131,0,0
279436.175,217.342,-618.844,0,0
280737.8,216.458,-626.993,0,0
282039.425,210.802,-632.797,0,0
283341,202.679,-635.648,0,0
284643,193.719,-635.273,0,0
285944,185.258,-631.551,0,0
287246,179.366,-625.354,0,0
288548,177.298,-619.095,0,0
289849,176.385,-615.747,0,0
291151,174.688,-613.738,0,0
292452,170.964,-611.273,0,0
293754,168.305,-606.06,0,0
295056,169.037,-601.562,0,0
296357,171.236,-600.279,0,0
297659,171.618,-602.209,0,0
298960.525,168.899,-604.553,0,0
300262.15,164.444,-606.133,0,0
301563.775,158.488,-606.529,0,0
302865.4,151.815,-604.921,0,0
304167.025,145.75,-601.847,0,0
305468.65,140.228,-597.446,0,0
306770.275,136.27,-592.281,0,0
308071.9,133.899,-587.478,0,0
309373.525,132.021,-583.957,0,0
310675.15,129.751,-581.361,0,0
311976.775,125.998,-578.946,0,0
313278.4,121.555,-574.997,0,0
314580,117.715,-569.344,0,0
315882,116.09,-562.717,0,0
317183,116.436,-557.476,0,0
318485,116.784,-553.881,0,0
319787,116.831,-550.516,0,0
321088,117.186,-547.42,0,0
322390,118.4,-545.315,0,0
323691,119.269,-545.156,0,0
324993,118.419,-546.477,0,0
326295,115.135,-547.412,0,0
327596,110.718,-546.967,0,0
328898,106.051,-545.209,0,0
330200,101.842,-542.568,0,0
331501.125,97.5026,-539.61,0,0
332802.75,93.1549,-536.12,0,0
334104.375,88.7314,-531.793,0,0
335406.0,84.8001,-526.411,0,0
336707.625,81.8123,-520.44,0,0
338009.25,79.6311,-514.231,0,0
339310.875,78.145,-507.766,0,0
340612.5,78.0375,-500.882,0,0
341914.125,79.7479,-494.773,0,0
343215.75,82.4644,-490.485,0,0
344517.375,84.4678,-488.246,0,0
345819.0,84.8636,-486.545,0,0
347121,84.6913,-484.418,0,0
348422,83.9397,-481.937,0,0
349724,83.3331,-478.341,0,0
351025,84.2438,-474.669,0,0
352327,86.0351,-472.674,0,0
353629,86.4295,-472.237,0,0
354930,85.1678,-471.247,0,0
356232,83.6226,-469.324,0,0
357534,81.8832,-466.835,0,0
358835,80.7668,-463.388,0,0
360137,80.5342,-460.062,0,0
361438,80.4507,-457.316,0,0
362740.1,80.0319,-454.412,0,0
364041.725,80.445,-451.07,0,0
365343.35,81.9455,-448.803,0,0
366644.975,82.591,-448.482,0,0
367946.6,81.0935,-447.773,0,0
369248.225,78.643,-445.467,0,0
370549.85,78.0364,-441.067,0,0
371851.475,79.7067,-438.388,0,0
373153.1,80.0646,-438.024,0,0
374454.725,78.2432,-436.945,0,0
375756.35,76.3165,-434.213,0,0
377057.975,75.5063,-430.394,0,0
378359.6,75.8922,-426.97,0,0
379661,76.7829,-424.164,0,0
380963,77.7516,-422.676,0,0
382264,77.7091,-421.437,0,0
383566,77.4916,-419.965,0,0
384868,76.5959,-418.653,0,0
386169,75.2654,-416.613,0,0
387471,73.9544,-414.07,0,0
388773,72.7696,-410.78,0,0
390074,72.3203,-406.707,0,0
391376,73.0477,-402.471,0,0
392677,75.0146,-398.854,0,0
393979,77.5885,-396.547,0,0
395280.7,79.8211,-395.372,0,0
396582.325,81.6554,-394.962,0,0
397883.95,82.7842,-395.246,0,0
399185.575,82.7109,-395.68,0,0
400006.6,82.3579,-395.847,0,0