File: Accelerated corrosion test data/2025-10-17_18-00-03/sample_1.csv
Frequency (Hz),Impedance (ohms),Phase (Radians),Temperature (C),Humidity (%)
10000.0,240.096,-12231.7,0,0
11301.625,214.164,-10833.1,0,0
12603.25,195.197,-9730.78,0,0
13904.875,183.428,-8805.49,0,0
15206.5,185.456,-8070.23,0,0
16508.125,155.311,-7444.92,0,0
17809.75,148.678,-6907.73,0,0
19111.375,135.986,-6438.14,0,0
20413.0,155.857,-5993.98,0,0
21714.625,135.846,-5676.06,0,0
23016.25,123.109,-5374.18,0,0
24317.875,112.738,-5080.39,0,0
25619.5,105.57,-4815.42,0,0
26921.1,114.216,-4565.42,0,0
28222.7,110.935,-4361.75,0,0
29524.4,108.505,-4195.91,0,0
30826,101.14,-4008.27,0,0
32127.6,98.0976,-3850.33,0,0
33429.2,89.6372,-3706.02,0,0
34730.9,82.3847,-3563.46,0,0
36032.5,78.1688,-3432.26,0,0
37334.1,75.5235,-3309.79,0,0
38635.7,73.2095,-3195.93,0,0
39937.4,71.3336,-3088.65,0,0
41239,72.6812,-2989.86,0,0
42540.6,70.4255,-2897.4,0,0
43842.225,67.7777,-2810.26,0,0
45143.85,68.516,-2728.69,0,0
46445.475,65.2619,-2651.81,0,0
47747.1,64.0095,-2578.25,0,0
49048.725,61.4287,-2507.94,0,0
50350.35,59.5992,-2441.17,0,0
51651.975,58.6908,-2377.68,0,0
52953.6,57.6598,-2316.53,0,0
54255.225,56.67,-2259.37,0,0
55556.85,55.7527,-2203.83,0,0
56858.475,54.7118,-2150.62,0,0
58160.1,54.5946,-2099.83,0,0
59461.7,54.3023,-2051.94,0,0
60763.3,54.5218,-2005.83,0,0
62065,53.0631,-1961.78,0,0
63366.6,52.3897,-1918.1,0,0
64668.2,52.8986,-1875.85,0,0
65969.8,55.0853,-1838.12,0,0
67271.5,53.628,-1801.41,0,0
68573.1,53.1388,-1765.73,0,0
69874.7,52.1131,-1731.76,0,0
71176.3,50.3504,-1697.09,0,0
72478,48.5312,-1663.38,0,0
73779.6,48.0878,-1629.91,0,0
75081.2,48.4861,-1597.62,0,0
76382.825,49.2788,-1566.41,0,0
77684.45,50.2648,-1536.98,0,0
78986.075,51.8872,-1509.36,0,0
80287.7,51.1545,-1482.91,0,0
81589.325,50.543,-1454.97,0,0
82890.95,51.2139,-1428.13,0,0
84192.575,52.5488,-1401.82,0,0
85494.2,54.8641,-1377.17,0,0
86795.825,55.8126,-1354,0,0
88097.45,56.1107,-1330.57,0,0
89399.075,58.0335,-1305.85,0,0
90700.7,61.3853,-1282.59,0,0
92002.3,67.5964,-1261.2,0,0
93303.9,74.8796,-1244.33,0,0
94605.6,74.0385,-1237.3,0,0
95907.2,67.1413,-1218.67,0,0
97208.8,64.9967,-1198.09,0,0
98510.4,64.4701,-1177.41,0,0
99812.1,63.4727,-1157.9,0,0
101114,63.3025,-1137.71,0,0
102415,63.4821,-1116.09,0,0
103717,68.2006,-1094.77,0,0
105019,75.1273,-1077.4,0,0
106320.175,81.2625,-1060.92,0,0
107621.8,87.849,-1048.49,0,0
108923.425,91.983,-1037.62,0,0
110225.05,94.2189,-1029.21,0,0
111526.675,94.2142,-1016.66,0,0
112828.3,96.8209,-1006.86,0,0
114129.925,95.6995,-999.123,0,0
115431.55,92.4359,-989.724,0,0
116733.175,87.8121,-977.79,0,0
118034.8,83.3848,-963.596,0,0
119336.425,81.53,-947.997,0,0
120638.05,81.6539,-933.644,0,0
121939.675,80.4817,-920.912,0,0
123241,79.044,-906.372,0,0
124543,78.915,-891.242,0,0
125845,79.7159,-876.364,0,0
127146,81.0199,-862.085,0,0
128448,83.0317,-847.602,0,0
129749,85.4561,-833.604,0,0
131051,90.1874,-820.098,0,0
132353,94.6157,-809.477,0,0
133654,97.4618,-798.958,0,0
134956,100.357,-788.229,0,0
136258,103.302,-777.602,0,0
137559,108.407,-767.786,0,0
138860.775,110.705,-761.762,0,0
140162.4,110.322,-753.67,0,0
141464.025,109.82,-743.454,0,0
142765.65,110.321,-732.348,0,0
144067.275,111.859,-720.909,0,0
145368.9,114.144,-709.683,0,0
146670.525,117.383,-699.433,0,0
147972.15,119.964,-690.987,0,0
149273.775,121.256,-680.053,0,0
150575.4,123.69,-671.755,0,0
151877.025,122.159,-660.976,0,0
153178.65,121.649,-646.021,0,0
154480,125.716,-629.056,0,0
155782,132.971,-612.554,0,0
157084,144.864,-597.762,0,0
158385,157.797,-588.26,0,0
159687,166.956,-577.318,0,0
160988,184.966,-566.491,0,0
162290,204.331,-565.393,0,0
163592,216.172,-568.652,0,0
164893,227.79,-570.367,0,0
166195,240.331,-575.882,0,0
167497,246.935,-586.685,0,0
168798,246.663,-598.437,0,0
170100,237.728,-606.061,0,0
171401.375,228.962,-603.972,0,0
172703.0,225.146,-598.683,0,0
174004.625,221.854,-594.983,0,0
175306.25,220.538,-589.89,0,0
176607.875,219.936,-586.949,0,0
177909.5,218.397,-583.661,0,0
179211.125,214.196,-581.973,0,0
180512.75,207.536,-578.129,0,0
181814.375,200.414,-570.018,0,0
183116.0,193.979,-559.489,0,0
184417.625,188.572,-546.503,0,0
185719.25,186.489,-529.803,0,0
187021,187.589,-514.667,0,0
188322,191.248,-498.965,0,0
189624,195.229,-484.806,0,0
190926,199.486,-469.915,0,0
192227,204.828,-453.439,0,0
193529,213.581,-436.324,0,0
194831,223.946,-419.51,0,0
196132,236.953,-401.99,0,0
197434,252.666,-385.01,0,0
198735,272.013,-368.755,0,0
200037,292.846,-353.363,0,0
201339,319.069,-336.905,0,0
202640.35,353.387,-321.674,0,0
203941.975,395.631,-314.81,0,0
205243.6,447.136,-320.814,0,0
206545.225,493.127,-347.489,0,0
207846.85,523.613,-385.981,0,0
209148.475,539.204,-425.904,0,0
210450.1,539.298,-464.403,0,0
211751.725,527.864,-484.596,0,0
213053.35,524.348,-488.562,0,0
214354.975,536.376,-495.168,0,0
215656.6,549.433,-509.552,0,0
216958.225,558.653,-526.609,0,0
218259.85,569.315,-542.902,0,0
219561,582.813,-558.859,0,0
220863,602.16,-583.476,0,0
222165,620.192,-620.22,0,0
223466,624.891,-669.139,0,0
224768,615.553,-717.099,0,0
226070,595.179,-762.504,0,0
227371,565.894,-802.806,0,0
228673,525.724,-836.723,0,0
229974,479.773,-855.344,0,0
231276,435.798,-860.998,0,0
232578,398.99,-857.603,0,0
233879,370.983,-851.299,0,0
235180.95,347.089,-847.002,0,0
236482.575,322.272,-842.683,0,0
237784.2,298.894,-836.144,0,0
239085.825,276.614,-827.159,0,0
240387.45,257.304,-816.39,0,0
241689.075,240.368,-805.2,0,0
242990.7,225.204,-792.919,0,0
244292.325,213.007,-781.184,0,0
245593.95,201.042,-770.722,0,0
246895.575,189.306,-759.483,0,0
248197.2,178.797,-746.928,0,0
249498.825,170.36,-734.141,0,0
250800,163.165,-721.97,0,0
252102,156.746,-709.879,0,0
253404,150.981,-697.69,0,0
254705,146.786,-684.587,0,0
256007,144.599,-672.317,0,0
257309,143.04,-660.669,0,0
258610,142.44,-649.038,0,0
259912,143.982,-637.109,0,0
261213,148.221,-627.195,0,0
262515,153.146,-619.67,0,0
263817,158.642,-614.266,0,0
265118,164.362,-610.962,0,0
266420,170.936,-610.969,0,0
267721.55,174.286,-616.614,0,0
269023.175,170.598,-623.423,0,0
270324.8,160.725,-626.042,0,0
271626.425,150.129,-621.704,0,0
272928.05,143.146,-613.24,0,0
274229.675,140.166,-604.063,0,0
275531.3,139.764,-596.184,0,0
276832.925,140.337,-589.439,0,0
278134.55,142.226,-584.148,0,0
279436.175,144.104,-581.042,0,0
280737.8,144.901,-579.309,0,0
282039.425,144.256,-578.598,0,0
283341,140.99,-576.793,0,0
284643,138.342,-572.944,0,0
285944,136.006,-569.245,0,0
287246,132.522,-564.843,0,0
288548,129.819,-556.814,0,0
289849,132.065,-548.914,0,0
291151,135.603,-545.101,0,0
292452,136.989,-542.979,0,0
293754,135.858,-540.389,0,0
295056,134.633,-534.645,0,0
296357,136.635,-527.35,0,0
297659,141.504,-522.061,0,0
298960.525,146.302,-518.715,0,0
300262.15,151.17,-516.042,0,0
301563.775,157.357,-513.975,0,0
302865.4,164.874,-515.014,0,0
304167.025,170.189,-518.667,0,0
305468.65,174.134,-522.9,0,0
306770.275,177.583,-528.296,0,0
308071.9,178.611,-535.671,0,0
309373.525,176.751,-541.956,0,0
310675.15,175.09,-547.491,0,0
311976.775,171.763,-554.4,0,0
313278.4,165.123,-560.613,0,0
314580,156.827,-563.909,0,0
315882,149.302,-565.409,0,0
317183,141.294,-566.036,0,0
318485,133.25,-565.043,0,0
319787,125.691,-562.907,0,0
321088,118.508,-559.491,0,0
322390,112.157,-554.934,0,0
323691,107.04,-549.387,0,0
324993,104.042,-543.753,0,0
326295,102.168,-538.996,0,0
327596,101.096,-535.344,0,0
328898,99.7974,-532.894,0,0
330200,97.9484,-531.117,0,0
331501.125,95.2819,-529.501,0,0
332802.75,92.101,-527.687,0,0
334104.375,88.4488,-525.401,0,0
335406.0,84.5372,-522.553,0,0
336707.625,80.9552,-519.044,0,0
338009.25,77.7009,-515.18,0,0
339310.875,74.7388,-511.21,0,0
340612.5,72.2027,-506.897,0,0
341914.125,69.9774,-502.918,0,0
343215.75,67.8639,-498.915,0,0
344517.375,65.6902,-494.879,0,0
345819.0,63.6579,-490.602,0,0
347121,61.7248,-486.15,0,0
348422,60.1686,-481.394,0,0
349724,59.2031,-476.784,0,0
351025,58.4093,-472.347,0,0
352327,57.8467,-468.024,0,0
353629,57.5388,-463.876,0,0
354930,57.1104,-459.822,0,0
356232,56.9407,-455.843,0,0
357534,56.8585,-451.953,0,0
358835,56.8279,-448.112,0,0
360137,56.9992,-444.23,0,0
361438,57.3194,-440.607,0,0
362740.1,57.6296,-437.186,0,0
364041.725,57.9282,-433.545,0,0
365343.35,58.473,-430.04,0,0
366644.975,59.0489,-426.722,0,0
367946.6,59.1762,-423.12,0,0
369248.225,59.9326,-418.679,0,0
370549.85,61.7493,-414.276,0,0
371851.475,64.5789,-410.372,0,0
373153.1,68.1397,-407.753,0,0
374454.725,71.5739,-406.303,0,0
375756.35,74.2865,-405.787,0,0
377057.975,76.3188,-405.429,0,0
378359.6,78.2292,-405.221,0,0
379661,79.7718,-405.492,0,0
380963,81.0985,-405.473,0,0
382264,82.8515,-406.676,0,0
383566,82.9871,-408.914,0,0
384868,81.5746,-410.878,0,0
386169,79.1225,-411.908,0,0
387471,76.0046,-411.776,0,0
388773,73.1056,-410.228,0,0
390074,71.2107,-408.218,0,0
391376,69.8162,-406.44,0,0
392677,68.4206,-405.093,0,0
393979,66.2675,-403.739,0,0
395280.7,63.7107,-401.508,0,0
396582.325,61.5242,-398.463,0,0
397883.95,59.9922,-395.077,0,0
399185.575,58.8108,-391.552,0,0
400006.6,58.3296,-389.269,0,0