File: Accelerated corrosion test data/2025-10-17_18-00-03/sample_8.csv
Frequency (Hz),Impedance (ohms),Phase (Radians),Temperature (C),Humidity (%)
10000.0,309.702,-10987.9,0,0
11301.625,274.3,-9737.89,0,0
12603.25,252.384,-8744.62,0,0
13904.875,224.418,-7942.63,0,0
15206.5,203.594,-7267.7,0,0
16508.125,188.284,-6700.35,0,0
17809.75,174.689,-6213.28,0,0
19111.375,166.858,-5789.79,0,0
20413.0,159.753,-5427.72,0,0
21714.625,149.169,-5107.09,0,0
23016.25,143.667,-4823.92,0,0
24317.875,131.809,-4566.42,0,0
25619.5,125.09,-4333.03,0,0
26921.1,119.861,-4122.1,0,0
28222.7,117.134,-3931.94,0,0
29524.4,113.641,-3758.79,0,0
30826,109.198,-3600.97,0,0
32127.6,105.108,-3452.95,0,0
33429.2,105.167,-3315.62,0,0
34730.9,106.145,-3190.97,0,0
36032.5,109.417,-3080.46,0,0
37334.1,105.703,-2980.37,0,0
38635.7,95.8453,-2883.75,0,0
39937.4,87.9439,-2786.79,0,0
41239,85.1353,-2696.23,0,0
42540.6,82.1876,-2610.95,0,0
43842.225,81.3822,-2533.11,0,0
45143.85,77.5715,-2458.39,0,0
46445.475,74.4741,-2387.36,0,0
47747.1,72.6756,-2320.05,0,0
49048.725,70.6157,-2256.54,0,0
50350.35,68.7792,-2195.49,0,0
51651.975,67.8289,-2137.26,0,0
52953.6,67.393,-2082.5,0,0
54255.225,66.2923,-2032.48,0,0
55556.85,63.2837,-1982.9,0,0
56858.475,61.0994,-1933.98,0,0
58160.1,60.1127,-1887.31,0,0
59461.7,59.5149,-1843.46,0,0
60763.3,58.1965,-1800.67,0,0
62065,57.6903,-1759.76,0,0
63366.6,58.0614,-1719.93,0,0
64668.2,58.5893,-1683.57,0,0
65969.8,57.8715,-1648.66,0,0
67271.5,55.8214,-1614.13,0,0
68573.1,54.894,-1580.03,0,0
69874.7,54.6854,-1546.92,0,0
71176.3,54.5855,-1515.34,0,0
72478,54.7295,-1485.43,0,0
73779.6,54.0837,-1456.34,0,0
75081.2,53.1877,-1427.8,0,0
76382.825,52.9092,-1399.74,0,0
77684.45,52.5717,-1372.98,0,0
78986.075,51.9477,-1346.56,0,0
80287.7,51.546,-1320.45,0,0
81589.325,51.5467,-1294.64,0,0
82890.95,52.468,-1269.67,0,0
84192.575,53.6876,-1245.81,0,0
85494.2,54.5332,-1224.08,0,0
86795.825,53.9975,-1200.88,0,0
88097.45,54.7875,-1178.39,0,0
89399.075,55.4406,-1156.03,0,0
90700.7,57.3021,-1133.28,0,0
92002.3,61.5105,-1112.26,0,0
93303.9,65.092,-1094.35,0,0
94605.6,65.1998,-1076.27,0,0
95907.2,67.1346,-1056.47,0,0
97208.8,70.6905,-1037.06,0,0
98510.4,75.7042,-1019.39,0,0
99812.1,80.6263,-1004.87,0,0
101114,85.034,-991.583,0,0
102415,87.3457,-980.444,0,0
103717,86.5608,-969.096,0,0
105019,85.6954,-955.99,0,0
106320.175,84.6831,-941.534,0,0
107621.8,84.947,-927.832,0,0
108923.425,84.3898,-913.345,0,0
110225.05,85.6224,-899.251,0,0
111526.675,86.3087,-886.397,0,0
112828.3,87.0326,-874.17,0,0
114129.925,87.0455,-862.294,0,0
115431.55,86.8283,-850.045,0,0
116733.175,85.0115,-838.074,0,0
118034.8,84.7047,-824.696,0,0
119336.425,84.2457,-812.271,0,0
120638.05,82.9457,-799.534,0,0
121939.675,82.2251,-786.269,0,0
123241,81.5695,-773.113,0,0
124543,81.073,-759.435,0,0
125845,80.8666,-745.775,0,0
127146,81.2059,-731.67,0,0
128448,82.0871,-717.849,0,0
129749,83.2869,-704.666,0,0
131051,84.4643,-690.927,0,0
132353,85.9234,-678.292,0,0
133654,86.4367,-665.249,0,0
134956,87.5741,-650.939,0,0
136258,90.7806,-637.63,0,0
137559,91.3096,-626.259,0,0
138860.775,90.3959,-611.087,0,0
140162.4,92.4905,-594.822,0,0
141464.025,95.3369,-579.09,0,0
142765.65,98.285,-562.509,0,0
144067.275,102.857,-544.983,0,0
145368.9,109.172,-526.559,0,0
146670.525,118.156,-508.858,0,0
147972.15,128.291,-492.956,0,0
149273.775,139.801,-473.992,0,0
150575.4,158.411,-456.377,0,0
151877.025,183.86,-448.127,0,0
153178.65,201.997,-451.099,0,0
154480,210.066,-454.433,0,0
155782,220.476,-448.563,0,0
157084,227.098,-459.206,0,0
158385,220.428,-450.848,0,0
159687,230.826,-442.455,0,0
160988,229.89,-441.144,0,0
162290,234.015,-425.857,0,0
163592,246.771,-418.539,0,0
164893,256.836,-416.316,0,0
166195,260.895,-422.075,0,0
167497,250.493,-417.952,0,0
168798,246.602,-403.581,0,0
170100,247.34,-385.419,0,0
171401.375,249.73,-367.984,0,0
172703.0,259.65,-343.465,0,0
174004.625,275.784,-327.496,0,0
175306.25,283.55,-315.793,0,0
176607.875,292.256,-289.679,0,0
177909.5,311.525,-264.175,0,0
179211.125,339.291,-237.637,0,0
180512.75,378.839,-215.357,0,0
181814.375,424.202,-206.516,0,0
183116.0,468.567,-212.466,0,0
184417.625,496.814,-222.901,0,0
185719.25,526.68,-224.971,0,0
187021,559.668,-229.517,0,0
188322,593.452,-233.573,0,0
189624,629.3,-246.179,0,0
190926,664.319,-250.673,0,0
192227,713.262,-267.607,0,0
193529,758.285,-278.971,0,0
194831,833.663,-310.442,0,0
196132,902.222,-378.99,0,0
197434,945.936,-478.35,0,0
198735,948.795,-589.659,0,0
200037,921.879,-690.958,0,0
201339,863.453,-771.791,0,0
202640.35,787.727,-835.047,0,0
203941.975,709.597,-848.602,0,0
205243.6,651.22,-851.853,0,0
206545.225,595.147,-838.893,0,0
207846.85,571.082,-810.047,0,0
209148.475,563.02,-802.022,0,0
210450.1,554.234,-797.251,0,0
211751.725,549.163,-798.974,0,0
213053.35,544.713,-808.068,0,0
214354.975,534.652,-822.426,0,0
215656.6,519.672,-837.45,0,0
216958.225,497.883,-850.718,0,0
218259.85,474.737,-859.367,0,0
219561,449.249,-864.641,0,0
220863,422.251,-865.361,0,0
222165,397.979,-856.585,0,0
223466,382.565,-846.153,0,0
224768,374.697,-838.336,0,0
226070,369.775,-840.287,0,0
227371,356.961,-847.474,0,0
228673,337.822,-851.532,0,0
229974,318.954,-852.526,0,0
231276,296.006,-852.439,0,0
232578,272.733,-846.695,0,0
233879,250.072,-837.367,0,0
235180.95,228.531,-822.898,0,0
236482.575,212.964,-804.339,0,0
237784.2,202.633,-785.863,0,0
239085.825,197.012,-767.927,0,0
240387.45,195.693,-755.474,0,0
241689.075,192.267,-747.584,0,0
242990.7,184.742,-739.086,0,0
244292.325,178.446,-727.271,0,0
245593.95,174.485,-716.027,0,0
246895.575,171.703,-705.083,0,0
248197.2,168.516,-695.68,0,0
249498.825,165.198,-684.81,0,0
250800,163.696,-672.356,0,0
252102,166.848,-660.476,0,0
253404,171.662,-654.293,0,0
254705,172.284,-650.483,0,0
256007,170.796,-645.215,0,0
257309,169.18,-637.328,0,0
258610,170.239,-627.644,0,0
259912,174.644,-618.809,0,0
261213,180.128,-613.065,0,0
262515,185.897,-609.107,0,0
263817,189.742,-606.421,0,0
265118,192.786,-601.07,0,0
266420,200.782,-593.286,0,0
267721.55,217.216,-588.914,0,0
269023.175,237.775,-596.634,0,0
270324.8,252.326,-615.986,0,0
271626.425,256.551,-643.053,0,0
272928.05,246.239,-671.317,0,0
274229.675,221.547,-691.586,0,0
275531.3,192.212,-695.989,0,0
276832.925,169.648,-689.119,0,0
278134.55,153.78,-679.494,0,0
279436.175,141.459,-668.536,0,0
280737.8,134.449,-656.091,0,0
282039.425,132.012,-646.291,0,0
283341,130.584,-640.399,0,0
284643,127.172,-635.136,0,0
285944,125.844,-628.05,0,0
287246,128.87,-624.463,0,0
288548,129.815,-628.71,0,0
289849,122.312,-633.462,0,0
291151,111.2,-632.422,0,0
292452,101.519,-628.025,0,0
293754,93.0651,-621.599,0,0
295056,85.8773,-613.935,0,0
296357,80.7808,-605.417,0,0
297659,76.8568,-597.45,0,0
298960.525,73.6746,-589.214,0,0
300262.15,71.6214,-580.814,0,0
301563.775,71.2428,-572.534,0,0
302865.4,72.1951,-565.577,0,0
304167.025,73.6862,-559.979,0,0
305468.65,75.184,-555.619,0,0
306770.275,76.5501,-552.433,0,0
308071.9,77.3496,-550.095,0,0
309373.525,77.209,-549.029,0,0
310675.15,75.3089,-547.392,0,0
311976.775,73.3588,-544.986,0,0
313278.4,71.2431,-542.544,0,0
314580,68.6129,-539.708,0,0
315882,66.1101,-536.017,0,0
317183,64.2004,-531.809,0,0
318485,62.9357,-527.769,0,0
319787,62.2437,-523.981,0,0
321088,61.6634,-521.285,0,0
322390,60.3556,-519.003,0,0
323691,58.4756,-516.658,0,0
324993,55.8419,-514.014,0,0
326295,53.0787,-510.4,0,0
327596,50.8593,-506.294,0,0
328898,48.9916,-502.075,0,0
330200,47.3804,-497.796,0,0
331501.125,46.0041,-493.383,0,0
332802.75,44.9315,-488.903,0,0
334104.375,44.3078,-484.473,0,0
335406.0,44.1337,-480.238,0,0
336707.625,44.0408,-476.629,0,0
338009.25,43.7938,-473.271,0,0
339310.875,43.3443,-470.06,0,0
340612.5,42.6828,-466.903,0,0
341914.125,41.7273,-463.582,0,0
343215.75,40.8924,-459.756,0,0
344517.375,40.3151,-455.896,0,0
345819.0,39.8848,-451.891,0,0
347121,39.8689,-447.861,0,0
348422,40.1975,-443.952,0,0
349724,40.7549,-440.281,0,0
351025,41.506,-436.819,0,0
352327,42.3433,-433.679,0,0
353629,43.1677,-430.947,0,0
354930,43.7609,-428.428,0,0
356232,44.249,-426.034,0,0
357534,44.5553,-423.707,0,0
358835,44.69,-421.226,0,0
360137,44.9879,-418.738,0,0
361438,45.2366,-416.257,0,0
362740.1,45.5389,-413.826,0,0
364041.725,45.8016,-411.428,0,0
365343.35,46.1306,-409.01,0,0
366644.975,46.5096,-406.695,0,0
367946.6,46.7753,-404.449,0,0
369248.225,47.1877,-401.928,0,0
370549.85,48.1188,-399.616,0,0
371851.475,49.1029,-398.115,0,0
373153.1,49.536,-396.996,0,0
374454.725,49.3924,-395.741,0,0
375756.35,48.9156,-394.041,0,0
377057.975,48.9238,-391.988,0,0
378359.6,49.0681,-390.641,0,0
379661,48.3701,-389.078,0,0
380963,48.1632,-386.76,0,0
382264,48.6,-385.45,0,0
383566,47.834,-384.538,0,0
384868,46.4828,-382.988,0,0
386169,45.0457,-380.732,0,0
387471,43.9198,-377.912,0,0
388773,43.2555,-374.853,0,0
390074,43.1033,-371.808,0,0
391376,43.1053,-369.153,0,0
392677,43.009,-366.554,0,0
393979,42.8184,-363.909,0,0
395280.7,42.7908,-361.035,0,0
396582.325,43.0548,-358.199,0,0
397883.95,43.437,-355.56,0,0
399185.575,43.803,-353.03,0,0
400006.6,43.9925,-351.465,0,0