File: Accelerated corrosion test data/2025-10-17_18-00-03/sample_4.csv
Frequency (Hz),Impedance (ohms),Phase (Radians),Temperature (C),Humidity (%)
10000.0,261.613,-11933.1,0,0
11301.625,232.689,-10571,0,0
12603.25,212.023,-9483.54,0,0
13904.875,191.93,-8597.64,0,0
15206.5,179.155,-7869.56,0,0
16508.125,190.11,-7252.47,0,0
17809.75,155.939,-6742.48,0,0
19111.375,144.605,-6283.47,0,0
20413.0,139.584,-5880.73,0,0
21714.625,145.849,-5534.49,0,0
23016.25,124.234,-5232.68,0,0
24317.875,115.494,-4947.08,0,0
25619.5,111.342,-4692.69,0,0
26921.1,105.594,-4461.33,0,0
28222.7,120.315,-4258,0,0
29524.4,112.788,-4077.94,0,0
30826,98.2789,-3904.77,0,0
32127.6,99.5786,-3743.15,0,0
33429.2,89.6145,-3602.11,0,0
34730.9,84.2985,-3463.03,0,0
36032.5,81.1899,-3334.88,0,0
37334.1,79.2215,-3215.72,0,0
38635.7,76.6938,-3103.13,0,0
39937.4,76.7086,-2996.66,0,0
41239,80.3842,-2901.51,0,0
42540.6,77.9505,-2813.07,0,0
43842.225,73.5426,-2729.62,0,0
45143.85,71.152,-2648.22,0,0
46445.475,70.17,-2570.17,0,0
47747.1,69.7572,-2500.49,0,0
49048.725,65.6181,-2431.02,0,0
50350.35,64.1456,-2363.36,0,0
51651.975,63.6081,-2298.34,0,0
52953.6,65.112,-2235.05,0,0
54255.225,73.7091,-2178.22,0,0
55556.85,71.6671,-2135.19,0,0
56858.475,65.3895,-2080.8,0,0
58160.1,66.2762,-2028.1,0,0
59461.7,70.1212,-1977.78,0,0
60763.3,79.5606,-1938.66,0,0
62065,69.9956,-1905.67,0,0
63366.6,63.9411,-1860.29,0,0
64668.2,64.2247,-1816.58,0,0
65969.8,66.0686,-1775.85,0,0
67271.5,69.8911,-1739.46,0,0
68573.1,73.8041,-1710.18,0,0
69874.7,66.4148,-1680.45,0,0
71176.3,64.4837,-1645.85,0,0
72478,58.9906,-1614.29,0,0
73779.6,57.6252,-1577.71,0,0
75081.2,59.5855,-1544.6,0,0
76382.825,62.054,-1515.53,0,0
77684.45,64.937,-1487.59,0,0
78986.075,63.9548,-1465.26,0,0
80287.7,60.8889,-1438.27,0,0
81589.325,60.3771,-1412.17,0,0
82890.95,59.1545,-1387.21,0,0
84192.575,57.8671,-1362.29,0,0
85494.2,56.993,-1337.89,0,0
86795.825,56.2088,-1314.2,0,0
88097.45,54.7649,-1291.33,0,0
89399.075,53.343,-1267,0,0
90700.7,53.2787,-1243.75,0,0
92002.3,53.562,-1220.56,0,0
93303.9,54.8952,-1199.55,0,0
94605.6,53.5428,-1179.4,0,0
95907.2,52.8636,-1156.79,0,0
97208.8,53.6005,-1135.02,0,0
98510.4,54.8281,-1113.43,0,0
99812.1,57.2221,-1092.6,0,0
101114,61.3249,-1073.85,0,0
102415,60.8323,-1059.05,0,0
103717,57.9643,-1036.39,0,0
105019,61.4974,-1012.74,0,0
106320.175,67.9514,-992.099,0,0
107621.8,74.7559,-973.966,0,0
108923.425,83.1628,-956.988,0,0
110225.05,91.5177,-944.16,0,0
111526.675,97.8506,-933.367,0,0
112828.3,103.005,-923.385,0,0
114129.925,106.479,-914.577,0,0
115431.55,108.584,-906.205,0,0
116733.175,108.479,-897.638,0,0
118034.8,106.666,-886.943,0,0
119336.425,107.778,-873.228,0,0
120638.05,113.164,-868.338,0,0
121939.675,106.02,-862.304,0,0
123241,101.186,-849.989,0,0
124543,98.1454,-837.226,0,0
125845,96.5908,-825.031,0,0
127146,93.324,-814.545,0,0
128448,88.3681,-803.37,0,0
129749,81.2296,-789.103,0,0
131051,75.8831,-771.264,0,0
132353,72.9777,-752.365,0,0
133654,72.0176,-733.311,0,0
134956,72.4272,-714.319,0,0
136258,74.3544,-695.677,0,0
137559,76.9079,-678.288,0,0
138860.775,78.7259,-660.107,0,0
140162.4,82.0402,-641.026,0,0
141464.025,87.0695,-621.867,0,0
142765.65,93.096,-603.602,0,0
144067.275,99.6478,-585.528,0,0
145368.9,107.036,-566.86,0,0
146670.525,116.298,-548.094,0,0
147972.15,126.924,-529.941,0,0
149273.775,139.216,-511.863,0,0
150575.4,153.534,-493.629,0,0
151877.025,171.896,-476.685,0,0
153178.65,194.235,-464.022,0,0
154480,216.25,-458.294,0,0
155782,233.694,-454.233,0,0
157084,249.116,-452.276,0,0
158385,264.016,-447.325,0,0
159687,284.588,-444.896,0,0
160988,301.376,-451.803,0,0
162290,309.056,-457.057,0,0
163592,313.75,-457.422,0,0
164893,321.311,-451.267,0,0
166195,335.61,-442.347,0,0
167497,362.408,-439.814,0,0
168798,389.888,-453.312,0,0
170100,410.406,-480.658,0,0
171401.375,410.41,-519.499,0,0
172703.0,387.818,-548.326,0,0
174004.625,354.297,-556.528,0,0
175306.25,325.261,-547.485,0,0
176607.875,305.276,-526.318,0,0
177909.5,297.611,-502.45,0,0
179211.125,296.323,-480.767,0,0
180512.75,300.006,-461.455,0,0
181814.375,304.287,-445.024,0,0
183116.0,307.36,-428.548,0,0
184417.625,311.02,-408.413,0,0
185719.25,318.29,-385.444,0,0
187021,329.166,-360.656,0,0
188322,344.87,-333.521,0,0
189624,367.217,-304.806,0,0
190926,398.332,-276.428,0,0
192227,438.48,-250.871,0,0
193529,487.78,-231.866,0,0
194831,543.409,-221.138,0,0
196132,604.462,-217.826,0,0
197434,675.062,-224.325,0,0
198735,754.526,-248.829,0,0
200037,836.486,-302.607,0,0
201339,899.199,-387.297,0,0
202640.35,929.534,-485.016,0,0
203941.975,936.176,-580.777,0,0
205243.6,915.551,-670.855,0,0
206545.225,882.062,-746.07,0,0
207846.85,835.681,-818.045,0,0
209148.475,768.852,-867.808,0,0
210450.1,702.84,-889.951,0,0
211751.725,647.309,-895.519,0,0
213053.35,604.527,-892.59,0,0
214354.975,571.304,-884.173,0,0
215656.6,553.059,-882.436,0,0
216958.225,529.056,-888.342,0,0
218259.85,505.204,-890.049,0,0
219561,482.783,-891.878,0,0
220863,458.981,-893.872,0,0
222165,435.747,-892.759,0,0
223466,414.315,-890.548,0,0
224768,394.792,-890.288,0,0
226070,371.242,-890.813,0,0
227371,344.755,-887.978,0,0
228673,316.685,-879.299,0,0
229974,292.761,-864.279,0,0
231276,273.465,-847.183,0,0
232578,258.547,-829.689,0,0
233879,246.944,-812.739,0,0
235180.95,237.889,-796.477,0,0
236482.575,230.015,-781.629,0,0
237784.2,223.924,-765.872,0,0
239085.825,221.642,-751.633,0,0
240387.45,220.516,-740.535,0,0
241689.075,219.046,-731.679,0,0
242990.7,216.685,-724.706,0,0
244292.325,212.357,-718.555,0,0
245593.95,206.019,-710.602,0,0
246895.575,200.713,-700.43,0,0
248197.2,197.671,-689.745,0,0
249498.825,195.477,-679.791,0,0
250800,194.086,-671.098,0,0
252102,191.004,-663.589,0,0
253404,185.95,-653.36,0,0
254705,182.647,-640.588,0,0
256007,180.458,-624.91,0,0
257309,183.232,-606.702,0,0
258610,191.658,-588.806,0,0
259912,206.524,-573.92,0,0
261213,224.452,-563.517,0,0
262515,245.14,-559.901,0,0
263817,267.401,-562.897,0,0
265118,286.154,-574.394,0,0
266420,299.504,-590.348,0,0
267721.55,308.464,-610.285,0,0
269023.175,307.637,-635.452,0,0
270324.8,294.214,-652.804,0,0
271626.425,283.391,-662.164,0,0
272928.05,273.29,-671.627,0,0
274229.675,260.311,-681.134,0,0
275531.3,242.092,-688.134,0,0
276832.925,221.477,-688.111,0,0
278134.55,201.02,-679.231,0,0
279436.175,190.081,-662.845,0,0
280737.8,188.712,-651.36,0,0
282039.425,186.19,-644.429,0,0
283341,186.33,-637.299,0,0
284643,185.782,-635.797,0,0
285944,181.285,-634.719,0,0
287246,173.829,-629.956,0,0
288548,167.346,-620.515,0,0
289849,167.744,-606.321,0,0
291151,176.565,-596.539,0,0
292452,188.77,-594.742,0,0
293754,198.233,-602.229,0,0
295056,200.187,-614.265,0,0
296357,193.322,-625.52,0,0
297659,181.997,-630.134,0,0
298960.525,171.959,-630.057,0,0
300262.15,163.471,-628.825,0,0
301563.775,154.996,-626.365,0,0
302865.4,147.61,-622.548,0,0
304167.025,140.438,-618.066,0,0
305468.65,134.502,-612.174,0,0
306770.275,130.129,-606.062,0,0
308071.9,127.378,-600.226,0,0
309373.525,125.568,-595.918,0,0
310675.15,122.636,-592.781,0,0
311976.775,119.016,-588.592,0,0
313278.4,116.118,-583.813,0,0
314580,114.387,-578.991,0,0
315882,113.246,-575.123,0,0
317183,112.235,-572.121,0,0
318485,111.103,-570.049,0,0
319787,109.17,-569.028,0,0
321088,105.408,-568.611,0,0
322390,99.2021,-567.236,0,0
323691,92.1227,-562.657,0,0
324993,87.165,-555.734,0,0
326295,84.0287,-549.29,0,0
327596,81.1228,-542.739,0,0
328898,79.1423,-535.566,0,0
330200,78.5939,-528.361,0,0
331501.125,79.6342,-522.301,0,0
332802.75,81.1072,-518.064,0,0
334104.375,81.209,-515.325,0,0
335406.0,79.9051,-512.276,0,0
336707.625,77.6888,-508.122,0,0
338009.25,76.1099,-502.5,0,0
339310.875,75.5523,-496.305,0,0
340612.5,76.3461,-489.693,0,0
341914.125,79.1659,-483.604,0,0
343215.75,83.4702,-479.6,0,0
344517.375,87.4002,-478.281,0,0
345819.0,89.5398,-478.374,0,0
347121,89.9009,-478.859,0,0
348422,88.8722,-478.796,0,0
349724,87.0155,-477.647,0,0
351025,85.0814,-475.585,0,0
352327,83.1053,-472.778,0,0
353629,81.9857,-468.93,0,0
354930,81.936,-465.666,0,0
356232,81.7057,-462.991,0,0
357534,81.1347,-460.485,0,0
358835,80.1068,-457.678,0,0
360137,79.0865,-454.334,0,0
361438,78.5411,-450.167,0,0
362740.1,79.0927,-446.3,0,0
364041.725,79.6153,-443.051,0,0
365343.35,79.6305,-439.77,0,0
366644.975,79.7358,-435.329,0,0
367946.6,81.2679,-430.42,0,0
369248.225,84.3772,-425.851,0,0
370549.85,88.5581,-422.472,0,0
371851.475,93.9839,-420.663,0,0
373153.1,99.2453,-421.751,0,0
374454.725,102.299,-425.214,0,0
375756.35,102.088,-428.216,0,0
377057.975,101.339,-429.581,0,0
378359.6,100.517,-430.483,0,0
379661,99.3213,-431.227,0,0
380963,97.7761,-431.414,0,0
382264,96.8036,-430.333,0,0
383566,97.8006,-431.085,0,0
384868,96.3007,-434.301,0,0
386169,91.4373,-436.309,0,0
387471,85.449,-435.126,0,0
388773,81.2564,-430.959,0,0
390074,80.2367,-426.429,0,0
391376,81.1286,-424.717,0,0
392677,79.7618,-425.85,0,0
393979,75.302,-425.588,0,0
395280.7,70.5617,-422.783,0,0
396582.325,67.0178,-418.558,0,0
397883.95,64.3876,-414.079,0,0
399185.575,62.3278,-409.209,0,0
400006.6,61.4872,-406.01,0,0