File: Accelerated corrosion test data/2025-10-17_06-53-44/sample_4.csv
Frequency (Hz),Impedance (ohms),Phase (Radians),Temperature (C),Humidity (%)
10000.0,261.552,-11926.8,0,0
11301.625,232.491,-10565.9,0,0
12603.25,212.004,-9478.68,0,0
13904.875,192.238,-8594.68,0,0
15206.5,179.574,-7865.75,0,0
16508.125,190.893,-7248.9,0,0
17809.75,154.986,-6738.85,0,0
19111.375,144.517,-6280.41,0,0
20413.0,139.724,-5877.92,0,0
21714.625,145.704,-5531.5,0,0
23016.25,124.352,-5230.18,0,0
24317.875,115.339,-4944.5,0,0
25619.5,111.183,-4690.03,0,0
26921.1,105.46,-4459.5,0,0
28222.7,119.654,-4255.62,0,0
29524.4,112.505,-4075.99,0,0
30826,98.0826,-3902.83,0,0
32127.6,99.2345,-3741.04,0,0
33429.2,89.4429,-3600.01,0,0
34730.9,84.1989,-3461.31,0,0
36032.5,81.2901,-3333.27,0,0
37334.1,79.1001,-3213.79,0,0
38635.7,76.5564,-3101.42,0,0
39937.4,76.4994,-2995.04,0,0
41239,80.183,-2900.13,0,0
42540.6,78.131,-2811.47,0,0
43842.225,73.2462,-2728.22,0,0
45143.85,71.0269,-2646.88,0,0
46445.475,69.9198,-2568.95,0,0
47747.1,69.7571,-2499.28,0,0
49048.725,65.6577,-2429.6,0,0
50350.35,64.1364,-2361.98,0,0
51651.975,63.5247,-2297.05,0,0
52953.6,65.06,-2233.9,0,0
54255.225,73.5371,-2177.03,0,0
55556.85,71.745,-2134.06,0,0
56858.475,65.3874,-2079.67,0,0
58160.1,66.2981,-2027.08,0,0
59461.7,70.1889,-1976.7,0,0
60763.3,79.4723,-1937.56,0,0
62065,69.8489,-1904.61,0,0
63366.6,63.899,-1859.38,0,0
64668.2,64.1678,-1815.62,0,0
65969.8,66.3216,-1774.89,0,0
67271.5,70.0216,-1738.54,0,0
68573.1,73.746,-1709.28,0,0
69874.7,66.2628,-1679.55,0,0
71176.3,64.499,-1645.07,0,0
72478,59.0845,-1613.42,0,0
73779.6,57.5935,-1576.8,0,0
75081.2,59.4958,-1543.88,0,0
76382.825,62.0619,-1514.77,0,0
77684.45,64.9249,-1486.86,0,0
78986.075,63.8296,-1464.54,0,0
80287.7,60.834,-1437.52,0,0
81589.325,60.3247,-1411.41,0,0
82890.95,59.0938,-1386.38,0,0
84192.575,57.8649,-1361.46,0,0
85494.2,56.9971,-1337.1,0,0
86795.825,56.219,-1313.32,0,0
88097.45,54.762,-1290.71,0,0
89399.075,53.4089,-1266.33,0,0
90700.7,53.3203,-1242.97,0,0
92002.3,53.5313,-1219.79,0,0
93303.9,54.9307,-1198.84,0,0
94605.6,53.506,-1178.65,0,0
95907.2,52.8834,-1155.99,0,0
97208.8,53.6214,-1134.2,0,0
98510.4,54.8524,-1112.63,0,0
99812.1,57.3824,-1091.77,0,0
101114,61.5243,-1073.08,0,0
102415,60.9564,-1058.44,0,0
103717,58.0443,-1035.77,0,0
105019,61.6812,-1012.11,0,0
106320.175,68.211,-991.479,0,0
107621.8,75.0759,-973.408,0,0
108923.425,83.4651,-956.528,0,0
110225.05,91.9243,-943.886,0,0
111526.675,98.0645,-933.03,0,0
112828.3,103.173,-923.254,0,0
114129.925,106.51,-914.448,0,0
115431.55,108.541,-906.107,0,0
116733.175,108.273,-897.592,0,0
118034.8,106.275,-886.84,0,0
119336.425,107.34,-872.945,0,0
120638.05,112.635,-867.988,0,0
121939.675,105.597,-861.814,0,0
123241,100.796,-849.505,0,0
124543,97.721,-836.714,0,0
125845,96.0581,-824.505,0,0
127146,92.7137,-813.795,0,0
128448,87.8001,-802.508,0,0
129749,80.8613,-788.066,0,0
131051,75.6685,-770.188,0,0
132353,72.9319,-751.323,0,0
133654,72.0043,-732.301,0,0
134956,72.5221,-713.343,0,0
136258,74.424,-694.746,0,0
137559,77.0505,-677.382,0,0
138860.775,78.8978,-659.268,0,0
140162.4,82.2178,-640.202,0,0
141464.025,87.2634,-621.094,0,0
142765.65,93.2708,-602.787,0,0
144067.275,99.8599,-584.641,0,0
145368.9,107.361,-565.886,0,0
146670.525,116.726,-547.176,0,0
147972.15,127.431,-529.095,0,0
149273.775,139.789,-511.069,0,0
150575.4,154.244,-492.874,0,0
151877.025,172.668,-476.074,0,0
153178.65,194.976,-463.6,0,0
154480,216.851,-457.996,0,0
155782,234.178,-454.001,0,0
157084,249.548,-451.957,0,0
158385,264.555,-446.923,0,0
159687,285.341,-444.328,0,0
160988,302.127,-451.56,0,0
162290,309.557,-456.769,0,0
163592,314.561,-456.966,0,0
164893,322.349,-450.852,0,0
166195,336.919,-442.438,0,0
167497,363.718,-440.395,0,0
168798,390.922,-454.496,0,0
170100,410.767,-482.273,0,0
171401.375,409.705,-520.934,0,0
172703.0,386.581,-549.054,0,0
174004.625,352.948,-556.449,0,0
175306.25,324.335,-546.762,0,0
176607.875,304.885,-525.321,0,0
177909.5,297.586,-501.578,0,0
179211.125,296.451,-480.009,0,0
180512.75,300.23,-460.819,0,0
181814.375,304.442,-444.399,0,0
183116.0,307.51,-427.73,0,0
184417.625,311.296,-407.34,0,0
185719.25,318.926,-384.104,0,0
187021,330.276,-359.14,0,0
188322,346.707,-331.945,0,0
189624,369.907,-303.466,0,0
190926,401.911,-275.611,0,0
192227,442.849,-251.005,0,0
193529,492.779,-233.418,0,0
194831,548.602,-224.627,0,0
196132,609.223,-223.285,0,0
197434,678.763,-231.809,0,0
198735,756.27,-258.572,0,0
200037,834.598,-313.961,0,0
201339,892.875,-398.095,0,0
202640.35,919.484,-493.446,0,0
203941.975,923.518,-585.357,0,0
205243.6,902.601,-671.113,0,0
206545.225,870.355,-742.7,0,0
207846.85,826.453,-811.993,0,0
209148.475,761.912,-860.363,0,0
210450.1,698.361,-882.21,0,0
211751.725,644.512,-887.886,0,0
213053.35,603.139,-885.257,0,0
214354.975,571.32,-877.368,0,0
215656.6,554.089,-876.274,0,0
216958.225,530.851,-882.846,0,0
218259.85,507.777,-885.239,0,0
219561,485.941,-888.057,0,0
220863,462.363,-891.147,0,0
222165,439.092,-891.175,0,0
223466,417.136,-889.823,0,0
224768,396.724,-889.889,0,0
226070,372.519,-890.775,0,0
227371,345.516,-887.588,0,0
228673,317.281,-878.671,0,0
229974,293.143,-863.387,0,0
231276,274.03,-845.887,0,0
232578,259.279,-828.279,0,0
233879,247.935,-811.114,0,0
235180.95,239.19,-794.903,0,0
236482.575,231.694,-780.148,0,0
237784.2,225.808,-764.599,0,0
239085.825,223.795,-750.678,0,0
240387.45,222.7,-739.942,0,0
241689.075,221.242,-731.527,0,0
242990.7,218.676,-724.945,0,0
244292.325,214.065,-718.861,0,0
245593.95,207.633,-710.855,0,0
246895.575,202.299,-700.747,0,0
248197.2,199.396,-690.227,0,0
249498.825,197.015,-680.609,0,0
250800,195.412,-672.145,0,0
252102,192.084,-664.666,0,0
253404,186.701,-654.502,0,0
254705,183.138,-641.5,0,0
256007,180.967,-625.56,0,0
257309,183.852,-607.16,0,0
258610,192.561,-589.239,0,0
259912,207.602,-574.511,0,0
261213,225.632,-564.55,0,0
262515,246.207,-561.233,0,0
263817,268.373,-564.438,0,0
265118,287.052,-576.332,0,0
266420,299.931,-592.803,0,0
267721.55,307.9,-612.943,0,0
269023.175,306.526,-637.429,0,0
270324.8,292.852,-654.559,0,0
271626.425,281.748,-663.415,0,0
272928.05,271.757,-672.421,0,0
274229.675,258.852,-681.68,0,0
275531.3,240.568,-688.611,0,0
276832.925,219.968,-688.202,0,0
278134.55,199.741,-679.118,0,0
279436.175,188.899,-662.584,0,0
280737.8,187.698,-650.927,0,0
282039.425,185.426,-644.193,0,0
283341,185.324,-636.996,0,0
284643,184.895,-635.316,0,0
285944,180.378,-634.005,0,0
287246,173.25,-628.971,0,0
288548,167.143,-619.636,0,0
289849,167.699,-605.455,0,0
291151,176.938,-595.873,0,0
292452,189.36,-594.535,0,0
293754,198.686,-602.576,0,0
295056,200.116,-614.795,0,0
296357,192.926,-625.924,0,0
297659,181.46,-630.363,0,0
298960.525,171.395,-630.162,0,0
300262.15,162.875,-628.749,0,0
301563.775,154.432,-626.213,0,0
302865.4,147.073,-622.298,0,0
304167.025,139.994,-617.767,0,0
305468.65,134.097,-611.814,0,0
306770.275,129.841,-605.613,0,0
308071.9,127.235,-599.846,0,0
309373.525,125.505,-595.662,0,0
310675.15,122.599,-592.582,0,0
311976.775,118.95,-588.502,0,0
313278.4,116.007,-583.78,0,0
314580,114.218,-579.02,0,0
315882,113.088,-575.182,0,0
317183,112.017,-572.149,0,0
318485,110.73,-570.141,0,0
319787,108.669,-569.12,0,0
321088,104.854,-568.569,0,0
322390,98.6186,-567.107,0,0
323691,91.4873,-562.266,0,0
324993,86.6826,-555.386,0,0
326295,83.604,-548.845,0,0
327596,80.7772,-542.231,0,0
328898,78.8829,-535.069,0,0
330200,78.4209,-527.832,0,0
331501.125,79.5235,-521.852,0,0
332802.75,80.8685,-517.558,0,0
334104.375,81.0515,-514.866,0,0
335406.0,79.7427,-511.875,0,0
336707.625,77.6113,-507.702,0,0
338009.25,75.9729,-502.052,0,0
339310.875,75.5385,-495.812,0,0
340612.5,76.4423,-489.341,0,0
341914.125,79.2547,-483.227,0,0
343215.75,83.6634,-479.363,0,0
344517.375,87.5132,-478.194,0,0
345819.0,89.6444,-478.397,0,0
347121,89.8513,-478.905,0,0
348422,88.7385,-478.801,0,0
349724,86.8536,-477.585,0,0
351025,84.8449,-475.449,0,0
352327,82.9886,-472.533,0,0
353629,81.8202,-468.7,0,0
354930,81.8652,-465.4,0,0
356232,81.653,-462.816,0,0
357534,81.0447,-460.291,0,0
358835,80.0191,-457.53,0,0
360137,78.9712,-454.141,0,0
361438,78.5013,-449.906,0,0
362740.1,79.0466,-446.068,0,0
364041.725,79.6347,-442.764,0,0
365343.35,79.7589,-439.555,0,0
366644.975,79.7737,-435.217,0,0
367946.6,81.3888,-430.329,0,0
369248.225,84.4832,-425.854,0,0
370549.85,88.6876,-422.483,0,0
371851.475,94.1294,-420.84,0,0
373153.1,99.3484,-422.119,0,0
374454.725,102.176,-425.633,0,0
375756.35,101.812,-428.535,0,0
377057.975,100.92,-429.845,0,0
378359.6,100.157,-430.706,0,0
379661,98.8003,-431.461,0,0
380963,97.2306,-431.595,0,0
382264,96.2199,-430.443,0,0
383566,97.2554,-431.187,0,0
384868,95.52,-434.296,0,0
386169,90.7692,-436.257,0,0
387471,84.7842,-434.95,0,0
388773,80.5656,-430.649,0,0
390074,79.5894,-426.032,0,0
391376,80.5531,-424.336,0,0
392677,79.2606,-425.359,0,0
393979,74.8405,-425.176,0,0
395280.7,70.1099,-422.315,0,0
396582.325,66.5951,-418.017,0,0
397883.95,64.0836,-413.541,0,0
399185.575,62.0695,-408.681,0,0
400006.6,61.2491,-405.519,0,0