File: Accelerated corrosion test data/2025-10-17_06-53-44/sample_2.csv
Frequency (Hz),Impedance (ohms),Phase (Radians),Temperature (C),Humidity (%)
10000.0,227.308,-11450.5,0,0
11301.625,202.2,-10141.1,0,0
12603.25,182.001,-9104.77,0,0
13904.875,185.221,-8256.19,0,0
15206.5,162.548,-7566.27,0,0
16508.125,142.043,-6969.78,0,0
17809.75,132.048,-6461.58,0,0
19111.375,127.624,-6020.55,0,0
20413.0,117.397,-5636.82,0,0
21714.625,126.562,-5307.39,0,0
23016.25,111.931,-5010.51,0,0
24317.875,101.869,-4744.24,0,0
25619.5,96.7148,-4499.74,0,0
26921.1,94.3114,-4281.19,0,0
28222.7,89.5897,-4082.01,0,0
29524.4,92.668,-3897.28,0,0
30826,86.773,-3743.16,0,0
32127.6,81.4954,-3588.62,0,0
33429.2,79.094,-3450.12,0,0
34730.9,75.1597,-3318.98,0,0
36032.5,72.5616,-3197.43,0,0
37334.1,70.5083,-3083.54,0,0
38635.7,68.1824,-2978.51,0,0
39937.4,66.5208,-2879.59,0,0
41239,65.1852,-2786.24,0,0
42540.6,64.0248,-2699.68,0,0
43842.225,62.7271,-2617.5,0,0
45143.85,61.6572,-2539.64,0,0
46445.475,60.7244,-2467.24,0,0
47747.1,59.8889,-2397.52,0,0
49048.725,60.3218,-2333.68,0,0
50350.35,57.4819,-2271.45,0,0
51651.975,56.3342,-2212.05,0,0
52953.6,54.7546,-2154.72,0,0
54255.225,54.0232,-2100,0,0
55556.85,53.644,-2047.8,0,0
56858.475,53.5658,-1998.07,0,0
58160.1,53.8509,-1950.73,0,0
59461.7,54.3849,-1904.66,0,0
60763.3,56.027,-1862.09,0,0
62065,58.7958,-1823.7,0,0
63366.6,55.3379,-1786.72,0,0
64668.2,53.04,-1748.88,0,0
65969.8,50.5916,-1709.41,0,0
67271.5,51.0924,-1672.06,0,0
68573.1,53.1754,-1637.93,0,0
69874.7,55.6199,-1607.72,0,0
71176.3,52.3069,-1579.56,0,0
72478,47.7614,-1549.05,0,0
73779.6,45.0592,-1516,0,0
75081.2,45.0561,-1483.62,0,0
76382.825,46.764,-1453.21,0,0
77684.45,49.497,-1424.84,0,0
78986.075,52.8637,-1400.52,0,0
80287.7,51.6112,-1379.02,0,0
81589.325,49.1065,-1353.98,0,0
82890.95,47.9245,-1328.15,0,0
84192.575,48.67,-1303.35,0,0
85494.2,49.3045,-1279.87,0,0
86795.825,50.3879,-1257.78,0,0
88097.45,50.9197,-1236.41,0,0
89399.075,51.2262,-1214.82,0,0
90700.7,51.1897,-1194.65,0,0
92002.3,52.7502,-1173.61,0,0
93303.9,55.1552,-1154.75,0,0
94605.6,55.1972,-1138,0,0
95907.2,54.152,-1118.49,0,0
97208.8,57.7822,-1101.21,0,0
98510.4,57.4962,-1087.32,0,0
99812.1,53.3323,-1072.74,0,0
101114,50.5386,-1055.36,0,0
102415,46.8788,-1035.11,0,0
103717,45.927,-1013.96,0,0
105019,49.1578,-993.685,0,0
106320.175,53.8946,-976.576,0,0
107621.8,57.5227,-964.488,0,0
108923.425,56.0208,-952.453,0,0
110225.05,52.7349,-937.315,0,0
111526.675,51.4167,-919.433,0,0
112828.3,51.9303,-901.876,0,0
114129.925,53.5081,-884.733,0,0
115431.55,56.1675,-868.084,0,0
116733.175,59.6759,-852.59,0,0
118034.8,63.8175,-838.368,0,0
119336.425,67.5837,-826.348,0,0
120638.05,69.9035,-815.733,0,0
121939.675,69.5109,-804.681,0,0
123241,68.7429,-791.752,0,0
124543,68.2615,-778.104,0,0
125845,68.3874,-763.272,0,0
127146,69.7876,-748.059,0,0
128448,72.8552,-733.58,0,0
129749,75.7956,-720.615,0,0
131051,78.5608,-707.821,0,0
132353,79.9752,-695.929,0,0
133654,81.0973,-682.284,0,0
134956,82.2529,-668.38,0,0
136258,84.4339,-653.198,0,0
137559,87.3738,-638.131,0,0
138860.775,90.5949,-623.127,0,0
140162.4,93.8584,-607.032,0,0
141464.025,99.1926,-588.429,0,0
142765.65,108.433,-570.784,0,0
144067.275,118.621,-555.342,0,0
145368.9,129.799,-539.999,0,0
146670.525,142.915,-525.581,0,0
147972.15,158.337,-511.457,0,0
149273.775,178.643,-498.442,0,0
150575.4,205.5,-494.228,0,0
151877.025,228.084,-504.328,0,0
153178.65,237.4,-518.727,0,0
154480,236.879,-530.107,0,0
155782,233.184,-533.53,0,0
157084,227.47,-534.119,0,0
158385,223.441,-526.902,0,0
159687,224.695,-521.037,0,0
160988,224.352,-516.12,0,0
162290,230.61,-510.783,0,0
163592,227.962,-517.111,0,0
164893,214.881,-514.492,0,0
166195,201.656,-501.642,0,0
167497,194.117,-482.267,0,0
168798,191.721,-460.136,0,0
170100,193.673,-437.848,0,0
171401.375,198.151,-415.706,0,0
172703.0,206.901,-392.291,0,0
174004.625,218.974,-368.592,0,0
175306.25,237.818,-344.568,0,0
176607.875,262.69,-327.358,0,0
177909.5,289.003,-315.636,0,0
179211.125,312.438,-314.755,0,0
180512.75,323.15,-314.754,0,0
181814.375,327.929,-300.401,0,0
183116.0,343.992,-279.863,0,0
184417.625,367.476,-256.747,0,0
185719.25,402.081,-237.279,0,0
187021,439.404,-225.689,0,0
188322,481.386,-216.583,0,0
189624,522.017,-215.254,0,0
190926,567.356,-209.889,0,0
192227,625.355,-208.552,0,0
193529,697.953,-222.931,0,0
194831,770.22,-268.238,0,0
196132,822.875,-331.276,0,0
197434,861.443,-397.813,0,0
198735,894.589,-476.545,0,0
200037,902.086,-562.046,0,0
201339,893.772,-650.397,0,0
202640.35,859.056,-728.982,0,0
203941.975,808.298,-792.338,0,0
205243.6,756.172,-840.088,0,0
206545.225,691.614,-869.186,0,0
207846.85,638.074,-877.538,0,0
209148.475,600.805,-881.658,0,0
210450.1,562.379,-895.628,0,0
211751.725,515.203,-899.503,0,0
213053.35,474.525,-888.884,0,0
214354.975,442.499,-874.885,0,0
215656.6,417.174,-859.864,0,0
216958.225,396.931,-843.477,0,0
218259.85,382.703,-827.986,0,0
219561,372.171,-813.535,0,0
220863,365.44,-801.998,0,0
222165,361.647,-792.17,0,0
223466,360.592,-787.514,0,0
224768,356.712,-785.898,0,0
226070,352.022,-784.343,0,0
227371,349.924,-783.419,0,0
228673,348.758,-788.3,0,0
229974,341.907,-798.234,0,0
231276,328.294,-806.728,0,0
232578,312.093,-811.39,0,0
233879,294.537,-812.931,0,0
235180.95,276.857,-811.189,0,0
236482.575,260.243,-807.896,0,0
237784.2,243.278,-802.833,0,0
239085.825,227.536,-795.051,0,0
240387.45,213.491,-785.559,0,0
241689.075,201.952,-775.416,0,0
242990.7,192.037,-765.212,0,0
244292.325,183.803,-756.606,0,0
245593.95,175.224,-749.249,0,0
246895.575,164.193,-742.99,0,0
248197.2,150.971,-732.619,0,0
249498.825,139.709,-719.091,0,0
250800,130.506,-703.612,0,0
252102,124.663,-686.34,0,0
253404,122.312,-670.099,0,0
254705,121.298,-654.743,0,0
256007,122.024,-638.953,0,0
257309,126.304,-624.142,0,0
258610,132.12,-611.942,0,0
259912,138.997,-601.177,0,0
261213,147.643,-592.713,0,0
262515,156.57,-587.125,0,0
263817,165.389,-584.265,0,0
265118,172.615,-584.114,0,0
266420,177.483,-585.025,0,0
267721.55,181.119,-586.259,0,0
269023.175,182.326,-587.709,0,0
270324.8,182.161,-586.452,0,0
271626.425,184.185,-582.788,0,0
272928.05,189.589,-579.39,0,0
274229.675,199.031,-578.867,0,0
275531.3,211.025,-585.522,0,0
276832.925,216.861,-602.317,0,0
278134.55,210.692,-618.39,0,0
279436.175,199.839,-628.878,0,0
280737.8,186.86,-635.173,0,0
282039.425,173.828,-637.769,0,0
283341,158.696,-637.064,0,0
284643,147.682,-631.337,0,0
285944,135.607,-627.567,0,0
287246,121.935,-616.914,0,0
288548,114.169,-600.307,0,0
289849,115.456,-581.124,0,0
291151,126.793,-567.782,0,0
292452,142.317,-566.064,0,0
293754,148.948,-575.573,0,0
295056,145.929,-580.059,0,0
296357,147.447,-580.068,0,0
297659,148.674,-589.72,0,0
298960.525,139.422,-596.627,0,0
300262.15,129.365,-597.666,0,0
301563.775,120.711,-594.455,0,0
302865.4,116.499,-590.923,0,0
304167.025,112.377,-590.741,0,0
305468.65,105.208,-590.795,0,0
306770.275,96.5137,-588.24,0,0
308071.9,88.5716,-583.299,0,0
309373.525,82.1638,-577.002,0,0
310675.15,77.231,-570.685,0,0
311976.775,72.8617,-564.388,0,0
313278.4,69.1025,-557.827,0,0
314580,66.1396,-551.349,0,0
315882,63.6109,-544.962,0,0
317183,61.6087,-538.569,0,0
318485,60.3459,-532.351,0,0
319787,59.3853,-526.753,0,0
321088,58.4044,-521.249,0,0
322390,57.4132,-515.706,0,0
323691,56.6007,-509.895,0,0
324993,56.5906,-503.293,0,0
326295,58.6529,-496.885,0,0
327596,62.0265,-492.857,0,0
328898,64.2627,-490.688,0,0
330200,65.8922,-488.942,0,0
331501.125,66.7502,-488.166,0,0
332802.75,66.0584,-487.931,0,0
334104.375,63.726,-486.801,0,0
335406.0,61.162,-484.125,0,0
336707.625,59.1277,-480.787,0,0
338009.25,57.424,-476.909,0,0
339310.875,56.097,-472.932,0,0
340612.5,55.0112,-468.653,0,0
341914.125,54.6077,-464.238,0,0
343215.75,54.4353,-459.879,0,0
344517.375,54.7083,-455.534,0,0
345819.0,55.5002,-451.32,0,0
347121,56.679,-447.455,0,0
348422,58.0609,-443.968,0,0
349724,59.6624,-440.925,0,0
351025,61.3289,-438.423,0,0
352327,62.7962,-436.404,0,0
353629,63.8002,-434.484,0,0
354930,64.9363,-432.332,0,0
356232,66.2476,-430.405,0,0
357534,67.7727,-428.705,0,0
358835,69.592,-427.684,0,0
360137,70.9921,-427.525,0,0
361438,71.5726,-427.822,0,0
362740.1,71.3583,-428.066,0,0
364041.725,70.5836,-427.841,0,0
365343.35,69.5595,-427.29,0,0
366644.975,68.3056,-426.226,0,0
367946.6,67.5036,-424.588,0,0
369248.225,67.4885,-423.386,0,0
370549.85,66.9752,-423.12,0,0
371851.475,65.5604,-422.352,0,0
373153.1,64.3851,-421.228,0,0
374454.725,63.1592,-420.132,0,0
375756.35,61.6945,-419.064,0,0
377057.975,60.0991,-417.719,0,0
378359.6,58.5914,-416.55,0,0
379661,55.7842,-415.319,0,0
380963,53.2441,-411.698,0,0
382264,53.2464,-408.667,0,0
383566,52.3665,-407.449,0,0
384868,50.2983,-405.689,0,0
386169,48.1218,-402.945,0,0
387471,46.5435,-399.572,0,0
388773,45.5182,-396.04,0,0
390074,45.1129,-392.61,0,0
391376,45.2293,-389.818,0,0
392677,44.7899,-387.91,0,0
393979,43.2502,-385.647,0,0
395280.7,41.6413,-382.202,0,0
396582.325,40.8475,-378.132,0,0
397883.95,40.7632,-374.095,0,0
399185.575,41.2195,-370.295,0,0
400006.6,41.6978,-368.133,0,0