File: Accelerated corrosion test data/2025-10-17_06-53-44/sample_1.csv
Frequency (Hz),Impedance (ohms),Phase (Radians),Temperature (C),Humidity (%)
10000.0,240.437,-12216.7,0,0
11301.625,214.1,-10820.3,0,0
12603.25,194.951,-9719.2,0,0
13904.875,181.736,-8794.78,0,0
15206.5,185.64,-8060.5,0,0
16508.125,155.563,-7436.23,0,0
17809.75,146.706,-6900.05,0,0
19111.375,135.65,-6430.87,0,0
20413.0,155.323,-5987.08,0,0
21714.625,136.157,-5669.42,0,0
23016.25,122.637,-5367.24,0,0
24317.875,112.534,-5075.15,0,0
25619.5,104.939,-4809.57,0,0
26921.1,114.555,-4560.82,0,0
28222.7,110.438,-4356.88,0,0
29524.4,107.983,-4191.35,0,0
30826,100.617,-4003.52,0,0
32127.6,97.8889,-3845.5,0,0
33429.2,89.1081,-3701.51,0,0
34730.9,82.055,-3559.51,0,0
36032.5,77.9101,-3428.26,0,0
37334.1,75.6062,-3305.87,0,0
38635.7,73.3131,-3192.08,0,0
39937.4,71.2823,-3085.29,0,0
41239,72.3174,-2986.28,0,0
42540.6,70.7799,-2894.18,0,0
43842.225,67.8164,-2807.31,0,0
45143.85,68.1406,-2725.52,0,0
46445.475,65.4705,-2648.99,0,0
47747.1,64.0582,-2575.35,0,0
49048.725,61.6741,-2504.96,0,0
50350.35,59.6124,-2438.48,0,0
51651.975,58.7107,-2374.79,0,0
52953.6,57.7659,-2313.73,0,0
54255.225,56.8039,-2256.74,0,0
55556.85,55.7922,-2201.42,0,0
56858.475,54.8448,-2148.17,0,0
58160.1,54.6633,-2097.59,0,0
59461.7,54.5047,-2049.62,0,0
60763.3,54.6133,-2003.67,0,0
62065,53.2092,-1959.86,0,0
63366.6,52.5027,-1916.22,0,0
64668.2,52.9731,-1874.13,0,0
65969.8,55.1671,-1836.31,0,0
67271.5,53.71,-1799.62,0,0
68573.1,53.2893,-1763.98,0,0
69874.7,52.1732,-1729.9,0,0
71176.3,50.4024,-1695.49,0,0
72478,48.5487,-1661.69,0,0
73779.6,48.1421,-1628.13,0,0
75081.2,48.5823,-1595.84,0,0
76382.825,49.2666,-1564.78,0,0
77684.45,50.3137,-1535.41,0,0
78986.075,51.9494,-1507.84,0,0
80287.7,51.211,-1481.4,0,0
81589.325,50.5924,-1453.48,0,0
82890.95,51.2611,-1426.65,0,0
84192.575,52.6174,-1400.47,0,0
85494.2,54.921,-1375.69,0,0
86795.825,55.8876,-1352.69,0,0
88097.45,56.2292,-1329.33,0,0
89399.075,58.0564,-1304.37,0,0
90700.7,61.4819,-1281.24,0,0
92002.3,67.6143,-1260.16,0,0
93303.9,74.9454,-1243.32,0,0
94605.6,73.9288,-1236.44,0,0
95907.2,67.1062,-1217.64,0,0
97208.8,64.9603,-1197.06,0,0
98510.4,64.2958,-1176.62,0,0
99812.1,63.3829,-1157.05,0,0
101114,63.3841,-1136.79,0,0
102415,63.5836,-1115.17,0,0
103717,68.3551,-1093.75,0,0
105019,75.3064,-1076.45,0,0
106320.175,81.497,-1060.02,0,0
107621.8,87.9916,-1047.7,0,0
108923.425,92.1921,-1037,0,0
110225.05,94.1743,-1028.54,0,0
111526.675,94.2445,-1015.84,0,0
112828.3,96.4838,-1006.39,0,0
114129.925,95.2894,-998.617,0,0
115431.55,91.9294,-988.855,0,0
116733.175,87.3679,-976.748,0,0
118034.8,83.071,-962.54,0,0
119336.425,81.3365,-946.905,0,0
120638.05,81.5464,-932.54,0,0
121939.675,80.4503,-919.825,0,0
123241,79.1031,-905.364,0,0
124543,78.9522,-890.295,0,0
125845,79.7524,-875.469,0,0
127146,81.0422,-861.13,0,0
128448,83.0998,-846.642,0,0
129749,85.5753,-832.725,0,0
131051,90.3921,-819.356,0,0
132353,94.7542,-808.908,0,0
133654,97.4872,-798.41,0,0
134956,100.292,-787.832,0,0
136258,103.124,-777.036,0,0
137559,108.152,-767.262,0,0
138860.775,110.316,-761.171,0,0
140162.4,109.98,-752.808,0,0
141464.025,109.633,-742.593,0,0
142765.65,110.155,-731.602,0,0
144067.275,111.637,-720.117,0,0
145368.9,114.068,-708.896,0,0
146670.525,117.172,-698.765,0,0
147972.15,119.725,-690.121,0,0
149273.775,120.945,-679.198,0,0
150575.4,123.328,-670.786,0,0
151877.025,121.889,-659.785,0,0
153178.65,121.573,-644.736,0,0
154480,125.71,-627.784,0,0
155782,133.166,-611.365,0,0
157084,145.207,-596.567,0,0
158385,158.022,-587.294,0,0
159687,167.375,-576.378,0,0
160988,185.512,-565.563,0,0
162290,205.068,-564.746,0,0
163592,216.733,-568.282,0,0
164893,228.323,-570.273,0,0
166195,240.633,-576.217,0,0
167497,246.564,-587.262,0,0
168798,245.761,-598.803,0,0
170100,236.75,-605.932,0,0
171401.375,227.726,-603.563,0,0
172703.0,224.113,-598.016,0,0
174004.625,220.752,-594.171,0,0
175306.25,219.419,-588.615,0,0
176607.875,219.073,-585.443,0,0
177909.5,217.934,-582.192,0,0
179211.125,213.744,-580.675,0,0
180512.75,206.913,-576.779,0,0
181814.375,199.786,-568.372,0,0
183116.0,193.546,-557.728,0,0
184417.625,188.355,-544.559,0,0
185719.25,186.508,-527.907,0,0
187021,187.774,-512.846,0,0
188322,191.545,-497.34,0,0
189624,195.585,-483.164,0,0
190926,199.838,-468.321,0,0
192227,205.231,-451.798,0,0
193529,213.917,-434.639,0,0
194831,224.407,-417.741,0,0
196132,237.522,-400.162,0,0
197434,253.384,-382.96,0,0
198735,273.175,-366.531,0,0
200037,294.535,-351.326,0,0
201339,321.115,-335.148,0,0
202640.35,355.899,-320.238,0,0
203941.975,398.627,-313.971,0,0
205243.6,450.186,-321.122,0,0
206545.225,495.59,-348.885,0,0
207846.85,524.675,-387.783,0,0
209148.475,539.174,-427.473,0,0
210450.1,538.796,-465.141,0,0
211751.725,527.136,-484.224,0,0
213053.35,524.564,-487.573,0,0
214354.975,536.935,-494.733,0,0
215656.6,549.355,-508.632,0,0
216958.225,559.058,-525.076,0,0
218259.85,571.191,-540.995,0,0
219561,585.631,-558.206,0,0
220863,604.87,-583.537,0,0
222165,622.786,-621.212,0,0
223466,627.732,-670.58,0,0
224768,617.802,-719.392,0,0
226070,596.704,-765.97,0,0
227371,565.645,-806.775,0,0
228673,524.146,-839.534,0,0
229974,478.238,-857.361,0,0
231276,434.275,-862.411,0,0
232578,397.586,-858.62,0,0
233879,369.542,-852.323,0,0
235180.95,345.681,-847.777,0,0
236482.575,320.681,-843.592,0,0
237784.2,297.005,-836.553,0,0
239085.825,274.839,-827.159,0,0
240387.45,255.69,-816.106,0,0
241689.075,238.814,-804.792,0,0
242990.7,223.954,-792.308,0,0
244292.325,211.703,-780.695,0,0
245593.95,199.925,-770.112,0,0
246895.575,188.154,-758.75,0,0
248197.2,177.797,-746.057,0,0
249498.825,169.502,-733.345,0,0
250800,162.406,-721.148,0,0
252102,156.027,-709.017,0,0
253404,150.393,-696.711,0,0
254705,146.384,-683.737,0,0
256007,144.283,-671.447,0,0
257309,142.732,-659.807,0,0
258610,142.207,-648.172,0,0
259912,143.865,-636.263,0,0
261213,148.142,-626.439,0,0
262515,153.095,-618.954,0,0
263817,158.769,-613.647,0,0
265118,164.61,-610.51,0,0
266420,171.064,-610.884,0,0
267721.55,173.995,-616.918,0,0
269023.175,169.641,-623.376,0,0
270324.8,159.778,-625.407,0,0
271626.425,149.381,-620.767,0,0
272928.05,142.622,-612.044,0,0
274229.675,140.018,-602.819,0,0
275531.3,139.971,-594.998,0,0
276832.925,140.734,-588.584,0,0
278134.55,142.717,-583.541,0,0
279436.175,144.601,-580.64,0,0
280737.8,145.263,-579.162,0,0
282039.425,144.439,-578.534,0,0
283341,141.058,-576.862,0,0
284643,138.12,-572.95,0,0
285944,135.831,-569.178,0,0
287246,132.135,-564.882,0,0
288548,129.329,-556.747,0,0
289849,131.489,-548.606,0,0
291151,134.953,-544.649,0,0
292452,136.525,-542.464,0,0
293754,135.451,-539.803,0,0
295056,134.229,-533.942,0,0
296357,136.471,-526.444,0,0
297659,141.566,-521.298,0,0
298960.525,146.509,-518.047,0,0
300262.15,151.468,-515.609,0,0
301563.775,157.475,-513.56,0,0
302865.4,165.142,-514.612,0,0
304167.025,170.414,-518.437,0,0
305468.65,174.343,-522.764,0,0
306770.275,177.76,-528.325,0,0
308071.9,178.674,-535.83,0,0
309373.525,176.654,-542.147,0,0
310675.15,174.83,-547.673,0,0
311976.775,171.439,-554.604,0,0
313278.4,164.645,-560.839,0,0
314580,156.276,-564.014,0,0
315882,148.637,-565.371,0,0
317183,140.501,-565.88,0,0
318485,132.522,-564.794,0,0
319787,124.846,-562.622,0,0
321088,117.641,-558.989,0,0
322390,111.567,-554.34,0,0
323691,106.689,-548.787,0,0
324993,103.582,-543.269,0,0
326295,101.74,-538.53,0,0
327596,100.589,-534.77,0,0
328898,99.3758,-532.33,0,0
330200,97.5723,-530.584,0,0
331501.125,94.9394,-528.975,0,0
332802.75,91.7177,-527.167,0,0
334104.375,87.9447,-524.899,0,0
335406.0,84.1494,-521.968,0,0
336707.625,80.5399,-518.421,0,0
338009.25,77.2952,-514.505,0,0
339310.875,74.4309,-510.559,0,0
340612.5,71.8947,-506.329,0,0
341914.125,69.7239,-502.276,0,0
343215.75,67.5653,-498.295,0,0
344517.375,65.3566,-494.275,0,0
345819.0,63.2534,-489.959,0,0
347121,61.441,-485.513,0,0
348422,59.9689,-480.683,0,0
349724,59.0331,-476.067,0,0
351025,58.2351,-471.702,0,0
352327,57.7301,-467.267,0,0
353629,57.3949,-463.132,0,0
354930,57.0581,-459.102,0,0
356232,56.9519,-455.115,0,0
357534,56.9248,-451.305,0,0
358835,56.908,-447.471,0,0
360137,57.0529,-443.662,0,0
361438,57.4611,-440.065,0,0
362740.1,57.7866,-436.6,0,0
364041.725,58.0817,-432.995,0,0
365343.35,58.6053,-429.504,0,0
366644.975,59.1727,-426.278,0,0
367946.6,59.3228,-422.677,0,0
369248.225,60.0418,-418.25,0,0
370549.85,61.9319,-413.858,0,0
371851.475,64.8396,-409.969,0,0
373153.1,68.4027,-407.385,0,0
374454.725,71.8567,-406.06,0,0
375756.35,74.4752,-405.685,0,0
377057.975,76.485,-405.347,0,0
378359.6,78.3825,-405.218,0,0
379661,79.7689,-405.553,0,0
380963,81.0694,-405.504,0,0
382264,82.6823,-406.841,0,0
383566,82.7162,-409.045,0,0
384868,81.1372,-410.985,0,0
386169,78.5775,-411.855,0,0
387471,75.4082,-411.514,0,0
388773,72.6554,-409.898,0,0
390074,70.7764,-407.793,0,0
391376,69.4187,-406.024,0,0
392677,67.9997,-404.617,0,0
393979,65.9177,-403.155,0,0
395280.7,63.4493,-400.91,0,0
396582.325,61.3062,-397.905,0,0
397883.95,59.727,-394.504,0,0
399185.575,58.6315,-390.998,0,0
400006.6,58.0952,-388.735,0,0