File: Accelerated corrosion test data/2025-10-17_06-53-44/sample_7.csv
Frequency (Hz),Impedance (ohms),Phase (Radians),Temperature (C),Humidity (%)
10000.0,272.446,-12100.4,0,0
11301.625,246.382,-10704.6,0,0
12603.25,256.301,-9651.11,0,0
13904.875,208.678,-8757.52,0,0
15206.5,194.859,-8020.16,0,0
16508.125,171.206,-7378.39,0,0
17809.75,169.958,-6823.42,0,0
19111.375,179.622,-6379.14,0,0
20413.0,168.452,-5987.69,0,0
21714.625,157.128,-5646.4,0,0
23016.25,129.915,-5322.06,0,0
24317.875,122.373,-5028.59,0,0
25619.5,118.476,-4764.49,0,0
26921.1,122.184,-4519.16,0,0
28222.7,177.672,-4306.15,0,0
29524.4,139.868,-4177.49,0,0
30826,132.158,-3991.5,0,0
32127.6,117.638,-3844.59,0,0
33429.2,101.756,-3693.77,0,0
34730.9,92.1824,-3548.69,0,0
36032.5,88.3605,-3414.86,0,0
37334.1,85.7867,-3291.18,0,0
38635.7,86.8429,-3173.85,0,0
39937.4,98.4277,-3074.16,0,0
41239,86.7439,-2987.06,0,0
42540.6,80.0764,-2890.83,0,0
43842.225,78.7996,-2801.86,0,0
45143.85,80.1895,-2723.83,0,0
46445.475,77.2032,-2651.74,0,0
47747.1,70.6928,-2575.29,0,0
49048.725,67.9436,-2504.91,0,0
50350.35,65.9448,-2437.62,0,0
51651.975,64.2497,-2374.02,0,0
52953.6,63.5647,-2313.53,0,0
54255.225,62.1409,-2256.74,0,0
55556.85,60.8944,-2201.93,0,0
56858.475,60.1442,-2149.63,0,0
58160.1,59.1664,-2099.06,0,0
59461.7,59.3761,-2051.42,0,0
60763.3,58.8913,-2007.63,0,0
62065,56.772,-1964.26,0,0
63366.6,55.5721,-1921.47,0,0
64668.2,54.8881,-1880.81,0,0
65969.8,54.8903,-1842.33,0,0
67271.5,53.2041,-1805.48,0,0
68573.1,52.0155,-1768.74,0,0
69874.7,51.3151,-1733.49,0,0
71176.3,51.1817,-1699.67,0,0
72478,50.2182,-1667.44,0,0
73779.6,49.3652,-1635.72,0,0
75081.2,48.7649,-1604.83,0,0
76382.825,48.2624,-1575.04,0,0
77684.45,48.0435,-1546.18,0,0
78986.075,47.6683,-1518.22,0,0
80287.7,47.5101,-1491.21,0,0
81589.325,47.1399,-1464.8,0,0
82890.95,46.8943,-1439.22,0,0
84192.575,46.9167,-1414.04,0,0
85494.2,47.1761,-1389.96,0,0
86795.825,47.2004,-1366.53,0,0
88097.45,47.3167,-1343.91,0,0
89399.075,46.8821,-1321.6,0,0
90700.7,47.0596,-1299.33,0,0
92002.3,47.3229,-1277.58,0,0
93303.9,47.9784,-1256.53,0,0
94605.6,49.9102,-1236.56,0,0
95907.2,49.8889,-1218.72,0,0
97208.8,49.2795,-1199.15,0,0
98510.4,50.1103,-1179.81,0,0
99812.1,49.7562,-1161.11,0,0
101114,51.2721,-1141.98,0,0
102415,52.7897,-1123.94,0,0
103717,55.6798,-1107.3,0,0
105019,56.5694,-1092.11,0,0
106320.175,56.0364,-1076,0,0
107621.8,57.011,-1059.69,0,0
108923.425,58.116,-1043.37,0,0
110225.05,58.7169,-1026.63,0,0
111526.675,61.7828,-1009.67,0,0
112828.3,66.4998,-993.505,0,0
114129.925,71.6838,-979.626,0,0
115431.55,77.8396,-966.867,0,0
116733.175,85.9197,-958.345,0,0
118034.8,89.7585,-953.568,0,0
119336.425,92.5839,-950.959,0,0
120638.05,85.3904,-951.051,0,0
121939.675,74.7969,-940.711,0,0
123241,67.2271,-927.565,0,0
124543,62.9769,-912.901,0,0
125845,58.9096,-898.979,0,0
127146,55.552,-884.257,0,0
128448,53.8337,-869.399,0,0
129749,52.2928,-854.787,0,0
131051,51.0414,-840.454,0,0
132353,50.3287,-825.08,0,0
133654,50.7349,-809.506,0,0
134956,53.374,-794.505,0,0
136258,57.9731,-781.751,0,0
137559,58.6083,-773.959,0,0
138860.775,56.114,-761.612,0,0
140162.4,56.3782,-747.765,0,0
141464.025,56.2364,-734.261,0,0
142765.65,57.3121,-719.791,0,0
144067.275,60.1281,-706.322,0,0
145368.9,61.8085,-694.078,0,0
146670.525,62.8576,-680.998,0,0
147972.15,64.5605,-667.575,0,0
149273.775,65.1339,-654.691,0,0
150575.4,65.5422,-638.995,0,0
151877.025,67.6755,-621.6,0,0
153178.65,71.9767,-603.584,0,0
154480,78.0147,-585.405,0,0
155782,86.4992,-567.097,0,0
157084,97.5907,-549.8,0,0
158385,111.253,-535.687,0,0
159687,121.694,-526.458,0,0
160988,125.838,-512.844,0,0
162290,134.197,-488.856,0,0
163592,152.31,-463.655,0,0
164893,179.12,-442.755,0,0
166195,208.715,-421.421,0,0
167497,256.157,-403.903,0,0
168798,317.071,-406.588,0,0
170100,374.345,-438.456,0,0
171401.375,413.214,-493.735,0,0
172703.0,427.141,-560.356,0,0
174004.625,396.986,-625.184,0,0
175306.25,347.258,-642.495,0,0
176607.875,322.919,-631.395,0,0
177909.5,329.454,-629.188,0,0
179211.125,332.59,-665.076,0,0
180512.75,300.275,-687.643,0,0
181814.375,262.057,-701.277,0,0
183116.0,218.346,-693.557,0,0
184417.625,187.584,-671.752,0,0
185719.25,167.978,-648.643,0,0
187021,153.106,-621.546,0,0
188322,149.154,-596.559,0,0
189624,143.22,-578.252,0,0
190926,137.362,-556.114,0,0
192227,136.009,-531.958,0,0
193529,137.899,-507.227,0,0
194831,143.719,-482.727,0,0
196132,154.564,-461.295,0,0
197434,166.351,-443.12,0,0
198735,175.441,-426.853,0,0
200037,184.413,-406.58,0,0
201339,198.577,-383.59,0,0
202640.35,219.172,-358.657,0,0
203941.975,247.12,-337.191,0,0
205243.6,281.614,-318.348,0,0
206545.225,326.673,-312.168,0,0
207846.85,362.234,-318.146,0,0
209148.475,399.094,-314.378,0,0
210450.1,457.613,-325.468,0,0
211751.725,504.516,-370.429,0,0
213053.35,527.337,-422.666,0,0
214354.975,533.627,-468.729,0,0
215656.6,529.212,-510.329,0,0
216958.225,525.696,-549.957,0,0
218259.85,502.978,-589.096,0,0
219561,468.157,-616.384,0,0
220863,432.789,-618.151,0,0
222165,412.032,-607.986,0,0
223466,406.257,-599.828,0,0
224768,402.764,-596.71,0,0
226070,405.329,-589.358,0,0
227371,416.313,-592.576,0,0
228673,428.838,-604.988,0,0
229974,433.481,-626.535,0,0
231276,431.611,-655.752,0,0
232578,419.859,-683.91,0,0
233879,392.257,-713.829,0,0
235180.95,348.859,-726.753,0,0
236482.575,313.758,-715.677,0,0
237784.2,290.101,-706.302,0,0
239085.825,265.399,-688.148,0,0
240387.45,261.366,-667.872,0,0
241689.075,254.57,-662.79,0,0
242990.7,239.826,-652.445,0,0
244292.325,231.673,-633.511,0,0
245593.95,234.996,-619.464,0,0
246895.575,234.478,-611.961,0,0
248197.2,232.28,-601.608,0,0
249498.825,233.515,-589.812,0,0
250800,238.692,-578.141,0,0
252102,248.605,-569.541,0,0
253404,263.53,-568.004,0,0
254705,273.202,-577.039,0,0
256007,273.785,-588.216,0,0
257309,268.024,-595.181,0,0
258610,261.197,-596.023,0,0
259912,256.998,-596.497,0,0
261213,250.892,-593.565,0,0
262515,249.564,-586.679,0,0
263817,256.262,-583.987,0,0
265118,259.884,-590.117,0,0
266420,257.284,-594.178,0,0
267721.55,256.251,-597.964,0,0
269023.175,251.798,-600.975,0,0
270324.8,250.571,-599.611,0,0
271626.425,257.779,-601.752,0,0
272928.05,265.947,-621.697,0,0
274229.675,251.232,-650.24,0,0
275531.3,218.719,-666.497,0,0
276832.925,181.761,-661.503,0,0
278134.55,154.811,-640.636,0,0
279436.175,142.464,-617.113,0,0
280737.8,138.783,-596.462,0,0
282039.425,138.321,-583.073,0,0
283341,134.814,-569.611,0,0
284643,135.761,-553.357,0,0
285944,141.758,-540.381,0,0
287246,148.248,-532.886,0,0
288548,150.961,-527.07,0,0
289849,153.743,-518.803,0,0
291151,159.093,-509.698,0,0
292452,166.395,-503.06,0,0
293754,174.429,-497.504,0,0
295056,183.08,-492.985,0,0
296357,193.663,-489.608,0,0
297659,206.405,-488.748,0,0
298960.525,219.849,-492.095,0,0
300262.15,233.497,-498.497,0,0
301563.775,248.354,-510.239,0,0
302865.4,260.896,-533.467,0,0
304167.025,256.809,-563.118,0,0
305468.65,241.495,-584.304,0,0
306770.275,221.443,-598.066,0,0
308071.9,200.522,-603.824,0,0
309373.525,180.406,-603.132,0,0
310675.15,164.942,-597.205,0,0
311976.775,153.419,-591.067,0,0
313278.4,143.309,-584.954,0,0
314580,133.957,-577.249,0,0
315882,127.934,-568.204,0,0
317183,124.607,-560.778,0,0
318485,121.91,-554.774,0,0
319787,119.724,-549.52,0,0
321088,117.676,-545.458,0,0
322390,115.238,-541.751,0,0
323691,112.729,-538.373,0,0
324993,109.854,-534.725,0,0
326295,107.966,-531.116,0,0
327596,105.833,-528.792,0,0
328898,102.737,-526.503,0,0
330200,99.3671,-523.899,0,0
331501.125,95.7541,-521.374,0,0
332802.75,91.4104,-518.705,0,0
334104.375,86.3051,-515.093,0,0
335406.0,81.5317,-510.305,0,0
336707.625,77.0071,-504.795,0,0
338009.25,73.206,-498.4,0,0
339310.875,70.3808,-491.814,0,0
340612.5,68.0774,-484.992,0,0
341914.125,66.5837,-477.951,0,0
343215.75,66.1997,-471.085,0,0
344517.375,66.772,-464.829,0,0
345819.0,67.7916,-459.764,0,0
347121,68.2828,-455.669,0,0
348422,67.7009,-451.793,0,0
349724,66.7082,-446.861,0,0
351025,66.1514,-441.176,0,0
352327,66.7726,-434.876,0,0
353629,68.8456,-429.198,0,0
354930,71.4091,-424.882,0,0
356232,73.8919,-422.115,0,0
357534,74.4613,-420.182,0,0
358835,73.6127,-416.925,0,0
360137,73.2985,-411.878,0,0
361438,74.4427,-406.42,0,0
362740.1,76.7856,-401.397,0,0
364041.725,79.5554,-397.093,0,0
365343.35,83.1901,-393.414,0,0
366644.975,86.7045,-391.303,0,0
367946.6,89.4656,-389.691,0,0
369248.225,92.0588,-388.511,0,0
370549.85,93.876,-388.449,0,0
371851.475,93.3837,-388.052,0,0
373153.1,92.6082,-385.293,0,0
374454.725,93.3313,-381.742,0,0
375756.35,94.8608,-378.714,0,0
377057.975,96.0679,-376.315,0,0
378359.6,96.9943,-373.068,0,0
379661,99.0338,-369.536,0,0
380963,101.491,-366.691,0,0
382264,103.891,-363.958,0,0
383566,106.717,-361.289,0,0
384868,109.88,-359.013,0,0
386169,112.648,-357.291,0,0
387471,115.351,-355.269,0,0
388773,118.273,-352.61,0,0
390074,123.016,-350.004,0,0
391376,128.085,-349.252,0,0
392677,132.583,-348.976,0,0
393979,136.655,-348.89,0,0
395280.7,141.232,-347.971,0,0
396582.325,147.807,-347.381,0,0
397883.95,156.365,-349.114,0,0
399185.575,165.428,-354.836,0,0
400006.6,170.071,-361.116,0,0