File: Accelerated corrosion test data/2025-10-05_06-00-04/sample_6.csv
Frequency (Hz),Impedance (ohms),Phase (Radians),Temperature (C),Humidity (%)
10000.0,4242.74,-6565.33,0,0
11301.625,3612.04,-6186.17,0,0
12603.25,3110.02,-5822.81,0,0
13904.875,2703.54,-5489.6,0,0
15206.5,2371.03,-5177.36,0,0
16508.125,2096.39,-4893.15,0,0
17809.75,1867.07,-4632.81,0,0
19111.375,1676.04,-4394.03,0,0
20413.0,1510.95,-4178.32,0,0
21714.625,1369.67,-3977.28,0,0
23016.25,1253.44,-3788.27,0,0
24317.875,1147.22,-3628.38,0,0
25619.5,1054.15,-3472.39,0,0
26921.1,972.139,-3326.89,0,0
28222.7,902.745,-3194.23,0,0
29524.4,838.654,-3067.62,0,0
30826,784.182,-2953.25,0,0
32127.6,734.744,-2841.83,0,0
33429.2,696.581,-2741.26,0,0
34730.9,656.933,-2652.86,0,0
36032.5,621.077,-2569.72,0,0
37334.1,583.972,-2489.39,0,0
38635.7,549.858,-2409.57,0,0
39937.4,521.88,-2333.6,0,0
41239,496.156,-2262.92,0,0
42540.6,474.055,-2197.3,0,0
43842.225,453.851,-2130.14,0,0
45143.85,438.585,-2067.61,0,0
46445.475,428.705,-2013.02,0,0
47747.1,417.947,-1964.34,0,0
49048.725,407.611,-1922.74,0,0
50350.35,387.879,-1888.65,0,0
51651.975,364.325,-1844.52,0,0
52953.6,347.318,-1799.35,0,0
54255.225,329.771,-1757.13,0,0
55556.85,313.814,-1714.74,0,0
56858.475,301.365,-1668.31,0,0
58160.1,296.981,-1629.96,0,0
59461.7,288.114,-1597.38,0,0
60763.3,275.63,-1564.28,0,0
62065,262.513,-1528.45,0,0
63366.6,258.642,-1490.17,0,0
64668.2,252.655,-1464.95,0,0
65969.8,243.46,-1434.85,0,0
67271.5,232.298,-1405.85,0,0
68573.1,223.084,-1373.08,0,0
69874.7,216.626,-1340.34,0,0
71176.3,213.465,-1308.52,0,0
72478,213.092,-1279.56,0,0
73779.6,213.657,-1254.49,0,0
75081.2,212.28,-1231.03,0,0
76382.825,211.306,-1208.92,0,0
77684.45,210.206,-1187.68,0,0
78986.075,208.977,-1168.35,0,0
80287.7,206.42,-1150.21,0,0
81589.325,202.594,-1132.18,0,0
82890.95,198.235,-1113.6,0,0
84192.575,193.577,-1094.14,0,0
85494.2,190.521,-1073.55,0,0
86795.825,189.182,-1054.17,0,0
88097.45,187.601,-1036.22,0,0
89399.075,186.891,-1017.98,0,0
90700.7,187.586,-1001.77,0,0
92002.3,185.5,-986.928,0,0
93303.9,184.16,-970.724,0,0
94605.6,183.904,-953.197,0,0
95907.2,186.131,-939.402,0,0
97208.8,185.879,-928.207,0,0
98510.4,184.069,-913.161,0,0
99812.1,189.683,-901.68,0,0
101114,188.099,-896.968,0,0
102415,183.252,-887.241,0,0
103717,178.128,-880.323,0,0
105019,166.112,-870.796,0,0
106320.175,153.94,-850.724,0,0
107621.8,151.19,-827.425,0,0
108923.425,154.24,-808.486,0,0
110225.05,156.636,-792.621,0,0
111526.675,159.906,-777.2,0,0
112828.3,164.248,-763.586,0,0
114129.925,169.697,-752.212,0,0
115431.55,173.637,-743.133,0,0
116733.175,178.536,-735.662,0,0
118034.8,177.846,-730.966,0,0
119336.425,176.138,-719.715,0,0
120638.05,182.123,-708.511,0,0
121939.675,185.163,-709.662,0,0
123241,179.554,-704.32,0,0
124543,176.071,-697.029,0,0
125845,171.925,-688.466,0,0
127146,167.799,-678.614,0,0
128448,166.366,-665.941,0,0
129749,168.65,-656.639,0,0
131051,168.543,-650.222,0,0
132353,166.745,-643.879,0,0
133654,163.086,-637.49,0,0
134956,157.609,-628.693,0,0
136258,152.482,-617.694,0,0
137559,148.773,-605.001,0,0
138860.775,146.51,-591.612,0,0
140162.4,145.951,-577.889,0,0
141464.025,146.913,-564.393,0,0
142765.65,148.566,-552.441,0,0
144067.275,150.688,-539.757,0,0
145368.9,155.044,-529.341,0,0
146670.525,156.772,-521.408,0,0
147972.15,156.39,-512.234,0,0
149273.775,155.561,-500.566,0,0
150575.4,155.891,-486.629,0,0
151877.025,159.29,-470.032,0,0
153178.65,169.91,-456.711,0,0
154480,176.9,-450.59,0,0
155782,181.426,-440.217,0,0
157084,191.183,-432.115,0,0
158385,196.352,-429.823,0,0
159687,197.463,-424.911,0,0
160988,199.036,-417.892,0,0
162290,200.138,-410.668,0,0
163592,200.555,-401.726,0,0
164893,200.376,-391.859,0,0
166195,202.116,-378.596,0,0
167497,205.899,-366.645,0,0
168798,209.929,-354.029,0,0
170100,215.066,-341.813,0,0
171401.375,219.928,-329.472,0,0
172703.0,225.192,-316.282,0,0
174004.625,230.629,-302.767,0,0
175306.25,235.774,-286.795,0,0
176607.875,243.167,-268.224,0,0
177909.5,254.02,-247.81,0,0
179211.125,269.222,-226.134,0,0
180512.75,290.689,-206.427,0,0
181814.375,315.034,-191.168,0,0
183116.0,340.411,-180.835,0,0
184417.625,364.605,-172.38,0,0
185719.25,387.505,-167.942,0,0
187021,404.082,-163.161,0,0
188322,416.622,-148.288,0,0
189624,437.169,-121.831,0,0
190926,474.909,-88.8638,0,0
192227,532.821,-64.3669,0,0
193529,598.96,-52.8489,0,0
194831,678.24,-53.6147,0,0
196132,761.604,-78.6361,0,0
197434,840.894,-123.153,0,0
198735,910.938,-182.842,0,0
200037,975.279,-259.645,0,0
201339,1026.68,-354.837,0,0
202640.35,1055.8,-475.165,0,0
203941.975,1038.79,-598.256,0,0
205243.6,992.724,-701.806,0,0
206545.225,927.879,-782.683,0,0
207846.85,856.574,-837.874,0,0
209148.475,789.403,-872.99,0,0
210450.1,731.433,-899.108,0,0
211751.725,674.593,-926.594,0,0
213053.35,605.334,-944.172,0,0
214354.975,539.804,-942.439,0,0
215656.6,483.787,-929.894,0,0
216958.225,437.963,-911.662,0,0
218259.85,399.542,-892.052,0,0
219561,366.906,-871.341,0,0
220863,339.363,-849.957,0,0
222165,315.744,-827.905,0,0
223466,296.045,-804.943,0,0
224768,281.56,-781.131,0,0
226070,273.604,-758.222,0,0
227371,271.779,-740.222,0,0
228673,270.874,-730.505,0,0
229974,264.8,-725.283,0,0
231276,254.178,-718.255,0,0
232578,242.612,-707.506,0,0
233879,232.923,-694.029,0,0
235180.95,225.991,-679.317,0,0
236482.575,221.843,-665.036,0,0
237784.2,219.364,-651.358,0,0
239085.825,218.467,-638.384,0,0
240387.45,218.863,-626.222,0,0
241689.075,220.079,-614.889,0,0
242990.7,222.526,-603.894,0,0
244292.325,226.452,-593.382,0,0
245593.95,231.883,-583.521,0,0
246895.575,239.674,-574.093,0,0
248197.2,250.991,-567.035,0,0
249498.825,263.8,-565.106,0,0
250800,275.041,-565.77,0,0
252102,288.446,-567.641,0,0
253404,304.395,-576.66,0,0
254705,316.281,-594.699,0,0
256007,319.171,-617.819,0,0
257309,312.668,-640.155,0,0
258610,299.585,-658.506,0,0
259912,282.404,-671.797,0,0
261213,263.234,-679.845,0,0
262515,244.179,-682.722,0,0
263817,226.798,-682.026,0,0
265118,210.988,-679.067,0,0
266420,197.136,-674.567,0,0
267721.55,184.571,-669.026,0,0
269023.175,173.482,-662.896,0,0
270324.8,163.565,-656.334,0,0
271626.425,154.462,-649.714,0,0
272928.05,146.106,-642.728,0,0
274229.675,138.506,-635.522,0,0
275531.3,131.582,-628.031,0,0
276832.925,125.501,-620.463,0,0
278134.55,120.076,-612.762,0,0
279436.175,115.314,-604.908,0,0
280737.8,111.803,-596.876,0,0
282039.425,109.473,-589.932,0,0
283341,106.837,-583.763,0,0
284643,104.425,-577.496,0,0
285944,102.675,-571.597,0,0
287246,100.999,-566.609,0,0
288548,98.7256,-561.663,0,0
289849,96.8043,-556.554,0,0
291151,95.2044,-551.69,0,0
292452,93.779,-547.247,0,0
293754,92.1923,-543.396,0,0
295056,89.9428,-539.82,0,0
296357,86.9776,-535.718,0,0
297659,84.069,-530.535,0,0
298960.525,82.379,-524.574,0,0
300262.15,82.0012,-519.341,0,0
301563.775,81.6065,-515.225,0,0
302865.4,80.8315,-511.429,0,0
304167.025,79.8043,-507.505,0,0
305468.65,79.1269,-503.317,0,0
306770.275,79.1894,-499.549,0,0
308071.9,78.9847,-497.011,0,0
309373.525,78.02,-494.534,0,0
310675.15,76.6979,-491.882,0,0
311976.775,75.3138,-489.259,0,0
313278.4,73.576,-486.341,0,0
314580,71.9491,-483.264,0,0
315882,70.4534,-480.016,0,0
317183,68.9829,-476.835,0,0
318485,67.5468,-473.661,0,0
319787,65.9812,-470.419,0,0
321088,64.4412,-467.048,0,0
322390,63.1834,-463.392,0,0
323691,62.1394,-459.94,0,0
324993,61.1028,-456.635,0,0
326295,59.9662,-453.359,0,0
327596,58.879,-449.961,0,0
328898,57.9336,-446.507,0,0
330200,57.0345,-443.127,0,0
331501.125,56.2191,-439.704,0,0
332802.75,55.4742,-436.258,0,0
334104.375,54.8868,-432.835,0,0
335406.0,54.3799,-429.45,0,0
336707.625,54.0611,-426.218,0,0
338009.25,53.6574,-423.072,0,0
339310.875,53.3274,-419.942,0,0
340612.5,52.9676,-416.753,0,0
341914.125,52.9001,-413.609,0,0
343215.75,53.1375,-410.675,0,0
344517.375,53.2442,-408.44,0,0
345819.0,52.5519,-406.214,0,0
347121,51.8203,-403.334,0,0
348422,51.365,-400.419,0,0
349724,51.1007,-397.442,0,0
351025,50.964,-394.601,0,0
352327,50.9146,-391.764,0,0
353629,50.979,-389.093,0,0
354930,50.9317,-386.619,0,0
356232,50.7558,-384.12,0,0
357534,50.6607,-381.498,0,0
358835,50.8144,-378.952,0,0
360137,50.9622,-376.743,0,0
361438,50.9027,-374.589,0,0
362740.1,50.6887,-372.491,0,0
364041.725,50.3708,-370.185,0,0
365343.35,50.0322,-367.781,0,0
366644.975,49.8517,-365.322,0,0
367946.6,49.7409,-362.887,0,0
369248.225,49.6583,-360.523,0,0
370549.85,49.6931,-358.007,0,0
371851.475,49.8241,-355.637,0,0
373153.1,50.1609,-353.489,0,0
374454.725,50.3919,-351.793,0,0
375756.35,50.0445,-350.167,0,0
377057.975,49.4738,-348.196,0,0
378359.6,48.9461,-346.072,0,0
379661,48.369,-343.835,0,0
380963,47.7284,-341.372,0,0
382264,47.4096,-338.499,0,0
383566,47.6997,-335.839,0,0
384868,47.75,-333.836,0,0
386169,47.3952,-331.682,0,0
387471,47.0437,-329.236,0,0
388773,46.7382,-326.642,0,0
390074,46.5545,-324.044,0,0
391376,46.4746,-321.398,0,0
392677,46.4809,-318.735,0,0
393979,46.4974,-316.091,0,0
395280.7,46.573,-313.391,0,0
396582.325,46.7484,-310.709,0,0
397883.95,46.9092,-308.043,0,0
399185.575,47.1583,-305.338,0,0
400006.6,47.3591,-303.635,0,0