File: Accelerated corrosion test data/2025-10-05_06-00-04/sample_2.csv
Frequency (Hz),Impedance (ohms),Phase (Radians),Temperature (C),Humidity (%)
10000.0,226.088,-11393.7,0,0
11301.625,200.806,-10090.8,0,0
12603.25,181.012,-9059.04,0,0
13904.875,183.178,-8212.65,0,0
15206.5,165.406,-7523.56,0,0
16508.125,141.643,-6934.9,0,0
17809.75,131.234,-6428.67,0,0
19111.375,127.731,-5990.55,0,0
20413.0,116.882,-5608.55,0,0
21714.625,127.269,-5278.84,0,0
23016.25,111.276,-4985.66,0,0
24317.875,101.69,-4720.82,0,0
25619.5,96.4508,-4477.96,0,0
26921.1,93.9507,-4259.84,0,0
28222.7,89.5486,-4061.06,0,0
29524.4,92.0919,-3877.55,0,0
30826,87.2787,-3724.67,0,0
32127.6,81.2892,-3571.28,0,0
33429.2,79.4158,-3433.08,0,0
34730.9,75.1425,-3302.58,0,0
36032.5,72.5783,-3181.61,0,0
37334.1,70.42,-3068.86,0,0
38635.7,68.2106,-2964.11,0,0
39937.4,66.1867,-2865.37,0,0
41239,65.0774,-2772.8,0,0
42540.6,63.9985,-2686.62,0,0
43842.225,62.3079,-2604.77,0,0
45143.85,61.2017,-2527.48,0,0
46445.475,60.8022,-2455.27,0,0
47747.1,60.2343,-2386.22,0,0
49048.725,59.9738,-2322.16,0,0
50350.35,57.4919,-2260.48,0,0
51651.975,56.2479,-2201.47,0,0
52953.6,54.7785,-2144.44,0,0
54255.225,53.8887,-2090.01,0,0
55556.85,53.6809,-2038.18,0,0
56858.475,53.4219,-1988.34,0,0
58160.1,53.809,-1941.31,0,0
59461.7,54.1842,-1895.66,0,0
60763.3,55.8619,-1853.39,0,0
62065,58.5961,-1814.79,0,0
63366.6,55.6492,-1778.46,0,0
64668.2,52.5231,-1740.16,0,0
65969.8,50.4254,-1701.5,0,0
67271.5,50.9689,-1664.01,0,0
68573.1,53.3031,-1630.41,0,0
69874.7,55.412,-1599.64,0,0
71176.3,52.1978,-1571.86,0,0
72478,47.545,-1541.46,0,0
73779.6,44.928,-1508.89,0,0
75081.2,44.9337,-1476.65,0,0
76382.825,46.6566,-1446.38,0,0
77684.45,49.3526,-1418.28,0,0
78986.075,52.6829,-1393.89,0,0
80287.7,51.6735,-1372.64,0,0
81589.325,48.9101,-1347.64,0,0
82890.95,47.7145,-1322.15,0,0
84192.575,48.5177,-1297.32,0,0
85494.2,49.2416,-1273.91,0,0
86795.825,49.9733,-1252.04,0,0
88097.45,50.6795,-1230.84,0,0
89399.075,50.7444,-1209.43,0,0
90700.7,51.2396,-1189.21,0,0
92002.3,52.6269,-1167.98,0,0
93303.9,55.487,-1149.34,0,0
94605.6,54.7631,-1133.08,0,0
95907.2,54.1158,-1113.63,0,0
97208.8,57.1146,-1096.59,0,0
98510.4,57.3515,-1082.77,0,0
99812.1,53.1531,-1068.65,0,0
101114,50.1502,-1050.14,0,0
102415,46.9579,-1030.22,0,0
103717,45.9394,-1009.71,0,0
105019,49.3386,-989.261,0,0
106320.175,54.1536,-972.405,0,0
107621.8,57.4547,-960.288,0,0
108923.425,56.1822,-948.551,0,0
110225.05,52.8894,-933.319,0,0
111526.675,51.781,-915.757,0,0
112828.3,52.0186,-898.541,0,0
114129.925,53.5669,-881.358,0,0
115431.55,56.1837,-865.084,0,0
116733.175,59.3902,-849.539,0,0
118034.8,63.3002,-835.512,0,0
119336.425,67.1458,-823.035,0,0
120638.05,69.7969,-812.795,0,0
121939.675,69.2477,-801.769,0,0
123241,68.6823,-788.989,0,0
124543,68.3886,-775.853,0,0
125845,68.0979,-761.447,0,0
127146,69.1304,-746.306,0,0
128448,71.8567,-731.529,0,0
129749,74.9337,-718.198,0,0
131051,77.7245,-705.676,0,0
132353,79.4836,-693.648,0,0
133654,80.565,-680.534,0,0
134956,81.8726,-666.588,0,0
136258,83.8426,-652.19,0,0
137559,86.6393,-637.218,0,0
138860.775,89.2737,-622.638,0,0
140162.4,91.9943,-606.421,0,0
141464.025,97.0431,-587.836,0,0
142765.65,105.814,-569.832,0,0
144067.275,116.132,-554.529,0,0
145368.9,126.682,-539.247,0,0
146670.525,138.646,-524.49,0,0
147972.15,153.725,-509.035,0,0
149273.775,173.856,-494.629,0,0
150575.4,201.355,-489.368,0,0
151877.025,225.615,-497.758,0,0
153178.65,237.206,-513.442,0,0
154480,237.73,-524.46,0,0
155782,234.625,-529.452,0,0
157084,230.844,-530.465,0,0
158385,226.867,-526.874,0,0
159687,224.048,-521.398,0,0
160988,225.372,-513.898,0,0
162290,232.94,-509.463,0,0
163592,231.174,-517.727,0,0
164893,217.381,-517.332,0,0
166195,202.263,-505.494,0,0
167497,194.136,-485.858,0,0
168798,190.218,-463.859,0,0
170100,191.988,-442.48,0,0
171401.375,195.352,-420.108,0,0
172703.0,203.375,-396.032,0,0
174004.625,215.402,-372.302,0,0
175306.25,233.595,-348.389,0,0
176607.875,256.801,-329.946,0,0
177909.5,285.42,-317.864,0,0
179211.125,305.983,-317.429,0,0
180512.75,317.28,-317.526,0,0
181814.375,321.261,-303.195,0,0
183116.0,335.995,-280.166,0,0
184417.625,360.952,-256.157,0,0
185719.25,396.654,-235.962,0,0
187021,436.34,-226.95,0,0
188322,478.051,-219.687,0,0
189624,517.922,-217.95,0,0
190926,561.437,-214.586,0,0
192227,620.28,-214.705,0,0
193529,689.558,-233.769,0,0
194831,751.46,-277.217,0,0
196132,804.276,-334.539,0,0
197434,844.284,-398.979,0,0
198735,872.062,-473.558,0,0
200037,879.905,-555.241,0,0
201339,875.369,-638.205,0,0
202640.35,844.182,-719.724,0,0
203941.975,791.889,-778.394,0,0
205243.6,743.435,-818.971,0,0
206545.225,687.517,-850.463,0,0
207846.85,637.998,-863.908,0,0
209148.475,599.029,-871.675,0,0
210450.1,560.284,-885.503,0,0
211751.725,513.636,-889.679,0,0
213053.35,473.513,-880.729,0,0
214354.975,440.606,-866.839,0,0
215656.6,415.865,-852.551,0,0
216958.225,395.383,-836.956,0,0
218259.85,380.599,-821.412,0,0
219561,370.344,-807.724,0,0
220863,362.764,-797.184,0,0
222165,357.403,-786.376,0,0
223466,356.452,-780.062,0,0
224768,354.044,-778.345,0,0
226070,349.865,-777.234,0,0
227371,347.865,-777.217,0,0
228673,346.043,-781.743,0,0
229974,339.522,-791.252,0,0
231276,326.668,-799.642,0,0
232578,310.518,-804.387,0,0
233879,293.361,-805.767,0,0
235180.95,276.887,-804.981,0,0
236482.575,259.574,-802.456,0,0
237784.2,242.303,-797.443,0,0
239085.825,226.418,-789.236,0,0
240387.45,212.707,-779.699,0,0
241689.075,201.175,-769.442,0,0
242990.7,191.972,-759.445,0,0
244292.325,184.181,-751.276,0,0
245593.95,175.763,-744.572,0,0
246895.575,164.715,-739.172,0,0
248197.2,150.931,-729.198,0,0
249498.825,139.161,-715.847,0,0
250800,129.874,-700.096,0,0
252102,124.017,-683.368,0,0
253404,121.128,-666.878,0,0
254705,120.113,-651.481,0,0
256007,120.876,-635.869,0,0
257309,124.846,-621.379,0,0
258610,130.452,-609.159,0,0
259912,137.004,-598.328,0,0
261213,145.492,-589.652,0,0
262515,154.543,-584.376,0,0
263817,162.903,-581.214,0,0
265118,170.375,-581.538,0,0
266420,174.048,-582.949,0,0
267721.55,177.003,-583.207,0,0
269023.175,177.888,-584.423,0,0
270324.8,176.853,-582.216,0,0
271626.425,179.025,-576.925,0,0
272928.05,184.981,-572.996,0,0
274229.675,195.332,-570.891,0,0
275531.3,208.596,-577.491,0,0
276832.925,215.791,-593.965,0,0
278134.55,210.975,-611.115,0,0
279436.175,200.223,-622.421,0,0
280737.8,188.071,-628.891,0,0
282039.425,175.019,-632.923,0,0
283341,159.561,-632.908,0,0
284643,147.653,-627.36,0,0
285944,135.782,-623.41,0,0
287246,122.055,-613.565,0,0
288548,113.332,-596.605,0,0
289849,114.86,-577.006,0,0
291151,126.877,-564.177,0,0
292452,141.044,-563.036,0,0
293754,147.726,-571.225,0,0
295056,144.876,-575.35,0,0
296357,148.619,-576.016,0,0
297659,147.845,-586.891,0,0
298960.525,138.333,-592.523,0,0
300262.15,129.094,-593.538,0,0
301563.775,120.514,-590.981,0,0
302865.4,115.918,-587.206,0,0
304167.025,112.18,-587.143,0,0
305468.65,104.912,-587.68,0,0
306770.275,95.7212,-585.081,0,0
308071.9,87.9115,-579.721,0,0
309373.525,81.6751,-573.841,0,0
310675.15,76.2703,-567.55,0,0
311976.775,71.7321,-560.786,0,0
313278.4,68.4556,-554.126,0,0
314580,65.6337,-547.874,0,0
315882,62.974,-541.639,0,0
317183,60.8841,-535.214,0,0
318485,59.6474,-529.029,0,0
319787,58.7632,-523.382,0,0
321088,57.7125,-517.99,0,0
322390,56.7883,-512.538,0,0
323691,55.9009,-506.769,0,0
324993,55.7605,-500.164,0,0
326295,57.8193,-493.777,0,0
327596,61.0276,-489.782,0,0
328898,63.1441,-487.367,0,0
330200,64.8158,-485.581,0,0
331501.125,65.7123,-484.771,0,0
332802.75,65.1285,-484.505,0,0
334104.375,62.8465,-483.204,0,0
335406.0,60.4606,-480.603,0,0
336707.625,58.3831,-477.324,0,0
338009.25,56.6853,-473.554,0,0
339310.875,55.3115,-469.508,0,0
340612.5,54.4959,-465.202,0,0
341914.125,53.9548,-460.982,0,0
343215.75,53.7026,-456.613,0,0
344517.375,53.9703,-452.249,0,0
345819.0,54.7123,-447.982,0,0
347121,55.8632,-444.134,0,0
348422,57.2436,-440.658,0,0
349724,58.9203,-437.459,0,0
351025,60.6887,-434.981,0,0
352327,62.086,-432.993,0,0
353629,63.1896,-430.865,0,0
354930,64.4424,-428.799,0,0
356232,65.7702,-426.982,0,0
357534,67.2148,-425.348,0,0
358835,68.9385,-424.119,0,0
360137,70.5654,-423.93,0,0
361438,71.0968,-424.134,0,0
362740.1,71.0188,-424.172,0,0
364041.725,70.5956,-424.053,0,0
365343.35,69.6117,-423.709,0,0
366644.975,68.4409,-422.709,0,0
367946.6,67.7773,-421.206,0,0
369248.225,67.7573,-420.078,0,0
370549.85,67.2601,-419.845,0,0
371851.475,65.93,-419.253,0,0
373153.1,64.6568,-418.189,0,0
374454.725,63.4529,-417.273,0,0
375756.35,61.9251,-416.24,0,0
377057.975,60.3797,-414.841,0,0
378359.6,58.8615,-413.84,0,0
379661,55.9798,-412.683,0,0
380963,53.4357,-409.124,0,0
382264,53.1973,-406.26,0,0
383566,52.2064,-404.852,0,0
384868,50.2538,-402.891,0,0
386169,48.3119,-400.26,0,0
387471,46.5836,-396.994,0,0
388773,45.4711,-393.429,0,0
390074,45.1744,-389.922,0,0
391376,45.4239,-387.194,0,0
392677,44.9305,-385.562,0,0
393979,43.2334,-383.196,0,0
395280.7,41.6899,-379.682,0,0
396582.325,40.9437,-375.632,0,0
397883.95,40.942,-371.62,0,0
399185.575,41.4323,-367.925,0,0
400006.6,41.8472,-365.782,0,0