File: Accelerated corrosion test data/2025-10-05_06-00-04/sample_4.csv
Frequency (Hz),Impedance (ohms),Phase (Radians),Temperature (C),Humidity (%)
10000.0,262.336,-11857.8,0,0
11301.625,233.674,-10505.2,0,0
12603.25,211.686,-9424,0,0
13904.875,192.279,-8545.07,0,0
15206.5,180.385,-7821.57,0,0
16508.125,185.268,-7204.37,0,0
17809.75,155.597,-6699.94,0,0
19111.375,144.824,-6244.51,0,0
20413.0,140.807,-5845.32,0,0
21714.625,145.005,-5498.57,0,0
23016.25,124.998,-5200.64,0,0
24317.875,116.265,-4916.65,0,0
25619.5,111.9,-4663.33,0,0
26921.1,106.063,-4434.47,0,0
28222.7,119.129,-4229.36,0,0
29524.4,112.441,-4052.78,0,0
30826,98.7601,-3880.64,0,0
32127.6,99.2038,-3720.53,0,0
33429.2,89.7466,-3580.16,0,0
34730.9,84.9337,-3441.99,0,0
36032.5,81.9631,-3314.81,0,0
37334.1,79.5051,-3196.25,0,0
38635.7,77.0575,-3084.22,0,0
39937.4,76.6972,-2978.8,0,0
41239,79.3054,-2883.96,0,0
42540.6,78.4208,-2796.21,0,0
43842.225,73.7402,-2713.07,0,0
45143.85,71.4785,-2632.27,0,0
46445.475,70.2784,-2555.62,0,0
47747.1,70.1667,-2485.43,0,0
49048.725,66.1706,-2416.54,0,0
50350.35,64.5241,-2349.15,0,0
51651.975,63.8991,-2284.47,0,0
52953.6,65.5777,-2221.76,0,0
54255.225,73.566,-2165.41,0,0
55556.85,71.7817,-2122.14,0,0
56858.475,65.8741,-2068.77,0,0
58160.1,66.6177,-2016.38,0,0
59461.7,70.7259,-1965.72,0,0
60763.3,79.9008,-1928,0,0
62065,69.6696,-1894.69,0,0
63366.6,64.4955,-1849.24,0,0
64668.2,64.3911,-1805.75,0,0
65969.8,66.2961,-1765.71,0,0
67271.5,70.1915,-1729.52,0,0
68573.1,73.7355,-1700.58,0,0
69874.7,66.2244,-1670.41,0,0
71176.3,65.2418,-1636.69,0,0
72478,59.171,-1605.2,0,0
73779.6,57.7106,-1568.64,0,0
75081.2,59.8331,-1536.03,0,0
76382.825,62.3408,-1507.05,0,0
77684.45,65.0408,-1479.28,0,0
78986.075,64.0283,-1456.91,0,0
80287.7,60.9212,-1430.12,0,0
81589.325,60.3715,-1404.12,0,0
82890.95,59.1097,-1379.15,0,0
84192.575,57.9022,-1354.44,0,0
85494.2,57.1015,-1330.14,0,0
86795.825,56.3737,-1306.6,0,0
88097.45,55.0982,-1283.96,0,0
89399.075,53.5742,-1259.78,0,0
90700.7,53.5415,-1236.66,0,0
92002.3,53.8373,-1213.69,0,0
93303.9,55.105,-1192.92,0,0
94605.6,53.753,-1172.6,0,0
95907.2,53.0289,-1150.2,0,0
97208.8,53.8902,-1128.62,0,0
98510.4,55.115,-1107.31,0,0
99812.1,57.7183,-1086.64,0,0
101114,61.7702,-1068.03,0,0
102415,60.8998,-1053.49,0,0
103717,57.9078,-1031.13,0,0
105019,61.5421,-1007.5,0,0
106320.175,67.8869,-987.23,0,0
107621.8,74.3866,-969.193,0,0
108923.425,82.4789,-952.166,0,0
110225.05,90.4359,-939.136,0,0
111526.675,96.7293,-927.722,0,0
112828.3,102.316,-917.481,0,0
114129.925,106.322,-908.739,0,0
115431.55,108.711,-900.709,0,0
116733.175,108.597,-892.725,0,0
118034.8,106.595,-882.382,0,0
119336.425,107.749,-868.727,0,0
120638.05,112.596,-863.737,0,0
121939.675,105.718,-857.701,0,0
123241,100.646,-845.479,0,0
124543,97.5531,-832.926,0,0
125845,95.1861,-820.52,0,0
127146,92.1078,-809.78,0,0
128448,87.2773,-797.833,0,0
129749,80.759,-783.268,0,0
131051,75.9726,-765.686,0,0
132353,73.3518,-747.055,0,0
133654,72.4511,-728.188,0,0
134956,73.0301,-709.242,0,0
136258,75.2172,-690.894,0,0
137559,78.0006,-673.52,0,0
138860.775,79.8322,-655.877,0,0
140162.4,83.0319,-636.985,0,0
141464.025,88.0879,-617.946,0,0
142765.65,94.0843,-599.837,0,0
144067.275,100.621,-581.569,0,0
145368.9,108.305,-563.06,0,0
146670.525,117.476,-544.442,0,0
147972.15,128.402,-526.398,0,0
149273.775,140.75,-508.128,0,0
150575.4,155.803,-490.377,0,0
151877.025,174.518,-474.272,0,0
153178.65,196.227,-462.097,0,0
154480,217.657,-456.86,0,0
155782,234.748,-452.933,0,0
157084,250.292,-451.115,0,0
158385,264.635,-445.421,0,0
159687,285.403,-442.552,0,0
160988,303.504,-449.669,0,0
162290,309.922,-456.839,0,0
163592,314.604,-455.535,0,0
164893,323.991,-448.184,0,0
166195,340.018,-442.926,0,0
167497,365.21,-440.832,0,0
168798,394.365,-456.893,0,0
170100,410.8,-486.388,0,0
171401.375,408.312,-524.425,0,0
172703.0,383.924,-550.176,0,0
174004.625,350.289,-556.548,0,0
175306.25,322.645,-545.366,0,0
176607.875,304.42,-524.49,0,0
177909.5,297.332,-500.982,0,0
179211.125,296.989,-480.406,0,0
180512.75,299.936,-461.571,0,0
181814.375,303.913,-444.856,0,0
183116.0,307.147,-427.905,0,0
184417.625,311.285,-407.252,0,0
185719.25,319.197,-383.826,0,0
187021,332.03,-358.354,0,0
188322,350.035,-331.675,0,0
189624,375.114,-304.461,0,0
190926,408.794,-278.378,0,0
192227,451.416,-257.243,0,0
193529,501.447,-243.904,0,0
194831,555.998,-239.217,0,0
196132,614.582,-243.309,0,0
197434,679.336,-256.495,0,0
198735,750.601,-288.13,0,0
200037,818.187,-345.608,0,0
201339,865.232,-425.64,0,0
202640.35,883.65,-514.107,0,0
203941.975,879.072,-593.494,0,0
205243.6,861.561,-666.496,0,0
206545.225,832.391,-731.431,0,0
207846.85,795.37,-790.572,0,0
209148.475,738.851,-837.736,0,0
210450.1,680.433,-858.553,0,0
211751.725,631.568,-865.259,0,0
213053.35,592.94,-862.289,0,0
214354.975,565.862,-855.739,0,0
215656.6,550.289,-855.857,0,0
216958.225,531.673,-863.546,0,0
218259.85,509.884,-869.774,0,0
219561,488.165,-873.749,0,0
220863,466.81,-878.989,0,0
222165,442.947,-882.49,0,0
223466,420.15,-882.695,0,0
224768,397.961,-883.771,0,0
226070,373.114,-884.937,0,0
227371,344.887,-880.841,0,0
228673,317.026,-871.927,0,0
229974,292.097,-856.2,0,0
231276,273.881,-837.722,0,0
232578,259.965,-820.15,0,0
233879,249.401,-802.705,0,0
235180.95,241.594,-786.918,0,0
236482.575,235.52,-772.728,0,0
237784.2,230.396,-758.506,0,0
239085.825,228.71,-745.772,0,0
240387.45,227.591,-736.283,0,0
241689.075,225.698,-729.135,0,0
242990.7,222.497,-723.114,0,0
244292.325,217.671,-717.402,0,0
245593.95,210.843,-710.141,0,0
246895.575,205.008,-700.233,0,0
248197.2,201.916,-689.741,0,0
249498.825,199.683,-681.429,0,0
250800,196.724,-673.139,0,0
252102,193.177,-665.728,0,0
253404,186.771,-656.161,0,0
254705,182.52,-642.127,0,0
256007,180.677,-626.17,0,0
257309,183.823,-608.136,0,0
258610,191.781,-590.766,0,0
259912,205.819,-574.97,0,0
261213,225.06,-565.263,0,0
262515,245.617,-563.006,0,0
263817,266.242,-566.666,0,0
265118,284.246,-578.027,0,0
266420,298.095,-594.702,0,0
267721.55,303.123,-617.384,0,0
269023.175,299.916,-638.021,0,0
270324.8,287.073,-656.192,0,0
271626.425,273.843,-662.108,0,0
272928.05,265.703,-669.801,0,0
274229.675,253.554,-678.328,0,0
275531.3,236.667,-685.413,0,0
276832.925,215.41,-685.083,0,0
278134.55,196.525,-675.748,0,0
279436.175,185.35,-660.626,0,0
280737.8,183.354,-648.04,0,0
282039.425,181.904,-641.368,0,0
283341,180.132,-633.517,0,0
284643,180.92,-630.218,0,0
285944,178.245,-628.066,0,0
287246,172.163,-625.09,0,0
288548,165.843,-615.859,0,0
289849,166.32,-602.135,0,0
291151,176.164,-592.566,0,0
292452,188.285,-592.461,0,0
293754,197.419,-600.06,0,0
295056,198.654,-612.977,0,0
296357,190.827,-623.931,0,0
297659,179.227,-628.174,0,0
298960.525,169.105,-627.694,0,0
300262.15,160.76,-626.015,0,0
301563.775,152.475,-623.742,0,0
302865.4,144.623,-619.516,0,0
304167.025,137.955,-614.597,0,0
305468.65,132.496,-608.702,0,0
306770.275,128.67,-602.589,0,0
308071.9,126.303,-597.393,0,0
309373.525,123.981,-593.492,0,0
310675.15,121.204,-590.016,0,0
311976.775,117.753,-586.361,0,0
313278.4,114.662,-581.819,0,0
314580,112.465,-577.198,0,0
315882,111.132,-573.07,0,0
317183,110.212,-569.932,0,0
318485,108.937,-568.091,0,0
319787,106.506,-566.978,0,0
321088,102.655,-566.179,0,0
322390,96.5432,-564.451,0,0
323691,89.4818,-559.601,0,0
324993,84.8339,-552.34,0,0
326295,81.9267,-545.726,0,0
327596,79.3841,-539.075,0,0
328898,77.6926,-532.109,0,0
330200,77.4362,-524.967,0,0
331501.125,78.6763,-519.162,0,0
332802.75,79.8648,-515.197,0,0
334104.375,79.9901,-512.279,0,0
335406.0,78.7035,-509.071,0,0
336707.625,76.8518,-504.927,0,0
338009.25,75.2999,-499.488,0,0
339310.875,74.9434,-493.134,0,0
340612.5,76.199,-486.841,0,0
341914.125,78.9891,-481.039,0,0
343215.75,83.4627,-477.329,0,0
344517.375,87.2761,-476.481,0,0
345819.0,89.0853,-476.906,0,0
347121,89.1563,-477.287,0,0
348422,87.9408,-477.07,0,0
349724,86.1257,-475.91,0,0
351025,83.9431,-473.86,0,0
352327,82.0131,-470.84,0,0
353629,80.7497,-466.949,0,0
354930,80.9402,-463.187,0,0
356232,81.2329,-460.748,0,0
357534,80.8807,-458.715,0,0
358835,79.438,-456.437,0,0
360137,77.9294,-452.571,0,0
361438,77.8514,-448.226,0,0
362740.1,78.4846,-444.221,0,0
364041.725,79.5147,-441.079,0,0
365343.35,79.674,-438.275,0,0
366644.975,79.573,-434.304,0,0
367946.6,80.8227,-429.5,0,0
369248.225,83.825,-424.82,0,0
370549.85,88.2738,-421.472,0,0
371851.475,93.8136,-420.169,0,0
373153.1,98.8035,-421.903,0,0
374454.725,100.88,-425.473,0,0
375756.35,100.507,-428.04,0,0
377057.975,99.5966,-429.423,0,0
378359.6,98.4103,-430.26,0,0
379661,97.184,-430.659,0,0
380963,95.7185,-430.786,0,0
382264,94.3067,-430.063,0,0
383566,94.627,-430.052,0,0
384868,93.2799,-432.689,0,0
386169,88.8205,-434.3,0,0
387471,83.2438,-433.086,0,0
388773,78.9804,-429.024,0,0
390074,77.9293,-424.544,0,0
391376,78.6192,-422.473,0,0
392677,77.7284,-423.004,0,0
393979,73.7742,-423,0,0
395280.7,69.0804,-420.468,0,0
396582.325,65.4438,-416.256,0,0
397883.95,62.9684,-411.497,0,0
399185.575,61.2298,-406.717,0,0
400006.6,60.4953,-403.586,0,0