File: Accelerated corrosion test data/2025-10-05_06-00-04/sample_3.csv
Frequency (Hz),Impedance (ohms),Phase (Radians),Temperature (C),Humidity (%)
10000.0,250.855,-11781.4,0,0
11301.625,223.456,-10435.2,0,0
12603.25,202.548,-9365.61,0,0
13904.875,184.819,-8493.7,0,0
15206.5,172.579,-7764.85,0,0
16508.125,161.631,-7170.37,0,0
17809.75,156.648,-6641.1,0,0
19111.375,146.234,-6190,0,0
20413.0,156.573,-5787.97,0,0
21714.625,137.959,-5470.11,0,0
23016.25,127.712,-5164.13,0,0
24317.875,118.748,-4884.52,0,0
25619.5,113.968,-4638.37,0,0
26921.1,107.901,-4407.67,0,0
28222.7,103.667,-4202.15,0,0
29524.4,109.829,-4022.66,0,0
30826,100.597,-3852.21,0,0
32127.6,100.95,-3688.39,0,0
33429.2,99.544,-3562.89,0,0
34730.9,88.165,-3425.87,0,0
36032.5,83.1044,-3298.38,0,0
37334.1,80.5814,-3180.4,0,0
38635.7,77.7122,-3070.46,0,0
39937.4,75.7014,-2968.27,0,0
41239,74.1209,-2871.28,0,0
42540.6,73.3405,-2781.68,0,0
43842.225,71.6547,-2696.09,0,0
45143.85,70.8315,-2616.69,0,0
46445.475,70.1914,-2541.09,0,0
47747.1,69.9234,-2468.3,0,0
49048.725,68.6453,-2403.06,0,0
50350.35,66.6613,-2338.13,0,0
51651.975,66.1905,-2275.3,0,0
52953.6,66.5874,-2215.64,0,0
54255.225,69.1704,-2160.93,0,0
55556.85,66.8632,-2113.44,0,0
56858.475,61.7319,-2060.74,0,0
58160.1,61.1787,-2008.71,0,0
59461.7,61.786,-1959.58,0,0
60763.3,63.087,-1912.79,0,0
62065,65.289,-1868.44,0,0
63366.6,68.8405,-1824.77,0,0
64668.2,77.2669,-1782.75,0,0
65969.8,91.394,-1757.28,0,0
67271.5,76.5047,-1732.22,0,0
68573.1,76.4503,-1694.9,0,0
69874.7,76.0012,-1665.55,0,0
71176.3,70.7079,-1635.33,0,0
72478,69.2305,-1602.51,0,0
73779.6,67.6449,-1574.19,0,0
75081.2,64.1031,-1545.88,0,0
76382.825,60.5699,-1516.72,0,0
77684.45,58.1113,-1487.83,0,0
78986.075,55.8865,-1459.29,0,0
80287.7,54.3874,-1431.35,0,0
81589.325,53.2993,-1404.1,0,0
82890.95,52.823,-1377.64,0,0
84192.575,52.5421,-1352.05,0,0
85494.2,52.4887,-1326.95,0,0
86795.825,52.6405,-1302.72,0,0
88097.45,53.2146,-1278.69,0,0
89399.075,54.4226,-1254.96,0,0
90700.7,56.8957,-1232.91,0,0
92002.3,59.4131,-1212.12,0,0
93303.9,62.835,-1193.37,0,0
94605.6,64.2166,-1178.82,0,0
95907.2,58.6046,-1161.69,0,0
97208.8,57.6126,-1140.69,0,0
98510.4,57.5041,-1121.54,0,0
99812.1,56.6966,-1103.02,0,0
101114,55.9774,-1083.43,0,0
102415,57.0459,-1062.92,0,0
103717,60.9488,-1045.06,0,0
105019,64.6107,-1031.22,0,0
106320.175,63.5102,-1018.11,0,0
107621.8,60.476,-1002.28,0,0
108923.425,58.6365,-984.426,0,0
110225.05,58.6707,-965.569,0,0
111526.675,61.0027,-947.783,0,0
112828.3,63.1168,-931.639,0,0
114129.925,64.7137,-915.489,0,0
115431.55,66.8981,-898.726,0,0
116733.175,70.6864,-882.124,0,0
118034.8,76.3144,-866.431,0,0
119336.425,83.1569,-854.749,0,0
120638.05,88.4468,-848.329,0,0
121939.675,86.3483,-839.63,0,0
123241,86.6667,-826.49,0,0
124543,88.2011,-815.298,0,0
125845,89.3133,-805.04,0,0
127146,88.6072,-795.325,0,0
128448,86.9396,-784.38,0,0
129749,85.1292,-771.207,0,0
131051,86.207,-758.016,0,0
132353,85.7748,-746.902,0,0
133654,85.1192,-734.793,0,0
134956,83.8149,-722.341,0,0
136258,82.5896,-708.647,0,0
137559,82.4546,-693.676,0,0
138860.775,83.8294,-680.219,0,0
140162.4,83.0088,-666.863,0,0
141464.025,82.9327,-652.452,0,0
142765.65,82.3499,-636.783,0,0
144067.275,82.5578,-619.632,0,0
145368.9,84.1632,-601.773,0,0
146670.525,86.7327,-582.937,0,0
147972.15,91.18,-563.126,0,0
149273.775,97.6594,-543.03,0,0
150575.4,107.842,-522.496,0,0
151877.025,120.7,-505.599,0,0
153178.65,133.451,-491.893,0,0
154480,143.57,-479.425,0,0
155782,152.156,-463.497,0,0
157084,163.661,-446.748,0,0
158385,179.295,-433.805,0,0
159687,186.327,-419.173,0,0
160988,200.246,-391.391,0,0
162290,227.025,-366.087,0,0
163592,264.315,-346.784,0,0
164893,310.814,-336.6,0,0
166195,364.783,-348.298,0,0
167497,403.796,-380.828,0,0
168798,424.26,-420.158,0,0
170100,427.058,-459.672,0,0
171401.375,409.885,-478.63,0,0
172703.0,404.793,-481.997,0,0
174004.625,411.848,-487.961,0,0
175306.25,417.269,-506.844,0,0
176607.875,408.192,-528.267,0,0
177909.5,389.188,-543.041,0,0
179211.125,364.584,-536.806,0,0
180512.75,358.033,-522.426,0,0
181814.375,362.08,-517.914,0,0
183116.0,355.674,-525.084,0,0
184417.625,341.853,-521.379,0,0
185719.25,328.487,-509.045,0,0
187021,321.775,-486.528,0,0
188322,327.755,-467.093,0,0
189624,333.726,-452.954,0,0
190926,343.391,-438.116,0,0
192227,352.782,-424.218,0,0
193529,364.3,-407.614,0,0
194831,387.397,-388.879,0,0
196132,418.413,-386.513,0,0
197434,442.368,-396.797,0,0
198735,454.213,-404.218,0,0
200037,463.979,-405.732,0,0
201339,470.513,-404.76,0,0
202640.35,485.611,-395.018,0,0
203941.975,514.829,-390.902,0,0
205243.6,544.832,-401.292,0,0
206545.225,560.74,-419.177,0,0
207846.85,577.204,-421.163,0,0
209148.475,606.47,-427.593,0,0
210450.1,640.106,-447.383,0,0
211751.725,668.008,-476.88,0,0
213053.35,690.538,-512.149,0,0
214354.975,707.082,-554.084,0,0
215656.6,715.99,-598.764,0,0
216958.225,715.9,-648.311,0,0
218259.85,701.414,-694.115,0,0
219561,680.05,-732.974,0,0
220863,663.03,-768.356,0,0
222165,630.865,-807.121,0,0
223466,587.167,-833.77,0,0
224768,544.27,-837.831,0,0
226070,519.874,-834.239,0,0
227371,503.332,-842.251,0,0
228673,479.239,-854.27,0,0
229974,450.233,-861.645,0,0
231276,420.92,-863.297,0,0
232578,394.503,-860.455,0,0
233879,370.482,-856.152,0,0
235180.95,347.952,-851.768,0,0
236482.575,324.194,-847.181,0,0
237784.2,300.083,-837.95,0,0
239085.825,276.488,-824.571,0,0
240387.45,258.278,-806.341,0,0
241689.075,245.089,-788.578,0,0
242990.7,236.028,-770.496,0,0
244292.325,230.934,-754.997,0,0
245593.95,226.63,-742.893,0,0
246895.575,221.719,-731.528,0,0
248197.2,217.554,-719.73,0,0
249498.825,216.615,-708.38,0,0
250800,215.636,-702.028,0,0
252102,210.136,-696.644,0,0
253404,201.8,-686.722,0,0
254705,196.811,-671.457,0,0
256007,197.135,-654.719,0,0
257309,204.595,-640.16,0,0
258610,213.878,-631.899,0,0
259912,224.273,-624.322,0,0
261213,238.819,-623.914,0,0
262515,250.86,-634.486,0,0
263817,251.163,-649.239,0,0
265118,242.632,-661.427,0,0
266420,227.903,-666.56,0,0
267721.55,213.074,-663.039,0,0
269023.175,202.918,-654.494,0,0
270324.8,197.497,-644.937,0,0
271626.425,195.027,-635.588,0,0
272928.05,195.389,-628.052,0,0
274229.675,195.029,-621.614,0,0
275531.3,197.304,-613.837,0,0
276832.925,204.147,-608.43,0,0
278134.55,212.383,-610.009,0,0
279436.175,216.072,-617.337,0,0
280737.8,212.974,-624.875,0,0
282039.425,206.683,-629.357,0,0
283341,198.239,-631.339,0,0
284643,189.752,-629.849,0,0
285944,181.894,-626.075,0,0
287246,175.887,-619.329,0,0
288548,174.652,-612.006,0,0
289849,175.22,-608.875,0,0
291151,173.894,-607.248,0,0
292452,170.883,-605.142,0,0
293754,168.859,-600.78,0,0
295056,170.028,-596.807,0,0
296357,172.507,-596.851,0,0
297659,172.322,-599.857,0,0
298960.525,168.574,-603.102,0,0
300262.15,162.926,-604.588,0,0
301563.775,156.361,-604.532,0,0
302865.4,149.434,-602.58,0,0
304167.025,143.262,-599.099,0,0
305468.65,137.893,-594.672,0,0
306770.275,133.601,-589.483,0,0
308071.9,131.135,-584.284,0,0
309373.525,129.594,-580.774,0,0
310675.15,126.898,-578.383,0,0
311976.775,123.155,-575.488,0,0
313278.4,118.587,-571.463,0,0
314580,114.845,-565.259,0,0
315882,113.689,-558.498,0,0
317183,114.627,-553.274,0,0
318485,115.47,-550.167,0,0
319787,115.332,-547.752,0,0
321088,115.248,-544.939,0,0
322390,115.857,-542.807,0,0
323691,116.352,-542.588,0,0
324993,114.924,-543.398,0,0
326295,111.83,-543.821,0,0
327596,107.535,-543.072,0,0
328898,103.301,-541.024,0,0
330200,99.3332,-538.474,0,0
331501.125,95.1489,-535.76,0,0
332802.75,90.7226,-532.206,0,0
334104.375,86.2705,-527.834,0,0
335406.0,82.5289,-522.319,0,0
336707.625,79.7608,-516.177,0,0
338009.25,77.8583,-510.21,0,0
339310.875,76.6034,-503.822,0,0
340612.5,76.717,-497.007,0,0
341914.125,78.6064,-491.289,0,0
343215.75,81.265,-487.551,0,0
344517.375,82.874,-485.559,0,0
345819.0,83.0205,-483.897,0,0
347121,82.6169,-481.607,0,0
348422,81.881,-478.937,0,0
349724,81.5509,-475.536,0,0
351025,82.3643,-472.17,0,0
352327,83.7915,-470.316,0,0
353629,83.9378,-469.851,0,0
354930,82.3814,-468.924,0,0
356232,80.5748,-466.657,0,0
357534,78.9991,-463.844,0,0
358835,77.7461,-460.454,0,0
360137,77.3666,-456.927,0,0
361438,77.3825,-453.789,0,0
362740.1,77.351,-450.836,0,0
364041.725,77.9399,-447.645,0,0
365343.35,79.3916,-445.551,0,0
366644.975,79.9595,-445.28,0,0
367946.6,78.2498,-444.834,0,0
369248.225,75.4999,-442.194,0,0
370549.85,74.9462,-437.408,0,0
371851.475,76.8038,-434.561,0,0
373153.1,77.3214,-434.07,0,0
374454.725,75.7552,-433.052,0,0
375756.35,73.9094,-430.391,0,0
377057.975,73.007,-426.656,0,0
378359.6,73.4196,-423.2,0,0
379661,74.3174,-420.44,0,0
380963,75.1282,-418.566,0,0
382264,75.6029,-417.159,0,0
383566,75.516,-415.991,0,0
384868,74.589,-414.711,0,0
386169,73.2493,-412.716,0,0
387471,72.1011,-409.979,0,0
388773,71.1959,-406.897,0,0
390074,70.7788,-403.113,0,0
391376,71.3939,-399.126,0,0
392677,73.1003,-395.489,0,0
393979,75.5791,-392.941,0,0
395280.7,78.0257,-391.592,0,0
396582.325,80.055,-391.358,0,0
397883.95,81.1189,-391.792,0,0
399185.575,80.9747,-392.387,0,0
400006.6,80.4176,-392.491,0,0