File: Accelerated corrosion test data/2025-10-05_06-00-04/sample_7.csv
Frequency (Hz),Impedance (ohms),Phase (Radians),Temperature (C),Humidity (%)
10000.0,274.881,-12066.9,0,0
11301.625,246.72,-10674.4,0,0
12603.25,263.357,-9634.13,0,0
13904.875,208.882,-8736.15,0,0
15206.5,198.965,-7994.41,0,0
16508.125,172.275,-7358.26,0,0
17809.75,167.949,-6803.16,0,0
19111.375,185.973,-6371.36,0,0
20413.0,168.628,-5964.81,0,0
21714.625,154.646,-5624.85,0,0
23016.25,131.546,-5306.61,0,0
24317.875,123.56,-5014.81,0,0
25619.5,119.577,-4751.49,0,0
26921.1,124.739,-4507.44,0,0
28222.7,180.425,-4300.57,0,0
29524.4,137.044,-4160.52,0,0
30826,135.499,-3979.18,0,0
32127.6,117.832,-3833.6,0,0
33429.2,102.599,-3682.41,0,0
34730.9,93.4929,-3538.14,0,0
36032.5,89.3424,-3404.93,0,0
37334.1,86.9812,-3281.1,0,0
38635.7,87.4511,-3164.87,0,0
39937.4,98.4894,-3064.37,0,0
41239,87.8679,-2977.2,0,0
42540.6,80.9329,-2881.73,0,0
43842.225,80.4432,-2793.44,0,0
45143.85,81.41,-2716.27,0,0
46445.475,78.7364,-2642.26,0,0
47747.1,71.7996,-2567.37,0,0
49048.725,69.1102,-2497.17,0,0
50350.35,67.2173,-2430.11,0,0
51651.975,65.5418,-2366.71,0,0
52953.6,64.6021,-2306.26,0,0
54255.225,63.3779,-2249.5,0,0
55556.85,62.1142,-2194.85,0,0
56858.475,61.4244,-2142.73,0,0
58160.1,60.5617,-2092.49,0,0
59461.7,60.76,-2045.21,0,0
60763.3,60.3338,-2001.27,0,0
62065,58.3887,-1958.07,0,0
63366.6,57.2003,-1915.42,0,0
64668.2,56.2593,-1874.93,0,0
65969.8,56.3114,-1836.69,0,0
67271.5,54.595,-1799.78,0,0
68573.1,53.3176,-1763.05,0,0
69874.7,52.9018,-1727.78,0,0
71176.3,52.6713,-1694.43,0,0
72478,51.4994,-1662.17,0,0
73779.6,50.7216,-1630.43,0,0
75081.2,50.2571,-1599.68,0,0
76382.825,49.7121,-1569.94,0,0
77684.45,49.4214,-1541.05,0,0
78986.075,49.1966,-1513.19,0,0
80287.7,49.0177,-1486.12,0,0
81589.325,48.689,-1459.93,0,0
82890.95,48.6497,-1434.31,0,0
84192.575,48.5423,-1409.29,0,0
85494.2,48.7477,-1385.33,0,0
86795.825,48.8031,-1361.95,0,0
88097.45,49.0307,-1338.95,0,0
89399.075,48.888,-1316.85,0,0
90700.7,49.1153,-1294.83,0,0
92002.3,49.6532,-1273.57,0,0
93303.9,49.8366,-1252.37,0,0
94605.6,52.7518,-1232.67,0,0
95907.2,51.5368,-1215.24,0,0
97208.8,51.0563,-1195.14,0,0
98510.4,51.9493,-1175.79,0,0
99812.1,51.6716,-1157.63,0,0
101114,52.9332,-1138.43,0,0
102415,54.5695,-1120.47,0,0
103717,57.1176,-1103.4,0,0
105019,58.579,-1088.49,0,0
106320.175,58.2049,-1072.86,0,0
107621.8,59.1355,-1056.27,0,0
108923.425,60.2459,-1040.6,0,0
110225.05,60.556,-1024.27,0,0
111526.675,63.4888,-1007.12,0,0
112828.3,67.2522,-991.212,0,0
114129.925,72.2863,-977.366,0,0
115431.55,77.6469,-964.613,0,0
116733.175,85.3893,-954.701,0,0
118034.8,88.9911,-949.649,0,0
119336.425,91.5603,-945.789,0,0
120638.05,86.0035,-944.677,0,0
121939.675,75.7517,-934.501,0,0
123241,69.8171,-921.721,0,0
124543,65.185,-907.336,0,0
125845,61.6143,-894.198,0,0
127146,58.1523,-879.439,0,0
128448,56.6086,-864.17,0,0
129749,55.4912,-849.801,0,0
131051,54.5152,-835.164,0,0
132353,53.6363,-820.248,0,0
133654,54.3453,-804.566,0,0
134956,57.6485,-789.669,0,0
136258,62.1691,-777.064,0,0
137559,62.9753,-769.185,0,0
138860.775,61.4473,-757.385,0,0
140162.4,61.3812,-743.706,0,0
141464.025,62.0105,-730.713,0,0
142765.65,63.0348,-716.99,0,0
144067.275,65.327,-703.599,0,0
145368.9,66.9361,-691.413,0,0
146670.525,68.0627,-678.134,0,0
147972.15,69.5876,-665.046,0,0
149273.775,70.9181,-651.596,0,0
150575.4,71.7724,-636.17,0,0
151877.025,74.0252,-618.956,0,0
153178.65,79.0026,-600.808,0,0
154480,85.9472,-583.059,0,0
155782,95.6576,-565.584,0,0
157084,107.748,-550.396,0,0
158385,120.451,-538.544,0,0
159687,128.938,-529.858,0,0
160988,132.668,-514.475,0,0
162290,143.144,-490.677,0,0
163592,162.591,-467.92,0,0
164893,189.435,-449.576,0,0
166195,219.185,-432.169,0,0
167497,266.219,-420.119,0,0
168798,318.558,-429.732,0,0
170100,361.559,-460.288,0,0
171401.375,395.491,-506.325,0,0
172703.0,406.603,-560.214,0,0
174004.625,384.301,-612.864,0,0
175306.25,343.95,-633.442,0,0
176607.875,323.265,-623.464,0,0
177909.5,330.624,-626.981,0,0
179211.125,331.27,-663.552,0,0
180512.75,296.592,-685.7,0,0
181814.375,258.129,-698.024,0,0
183116.0,215.378,-688.498,0,0
184417.625,186.45,-664.016,0,0
185719.25,170.868,-640.719,0,0
187021,155.686,-615.073,0,0
188322,152.513,-589.745,0,0
189624,147.282,-574.29,0,0
190926,140.111,-550.685,0,0
192227,140.205,-525.359,0,0
193529,142.867,-500.642,0,0
194831,150.123,-476.063,0,0
196132,161.548,-454.653,0,0
197434,174.178,-435.118,0,0
198735,186.977,-416.857,0,0
200037,201.459,-397.177,0,0
201339,221.423,-376.618,0,0
202640.35,246.449,-357.367,0,0
203941.975,278.391,-342.848,0,0
205243.6,314.652,-336.135,0,0
206545.225,353.578,-340.699,0,0
207846.85,379.699,-352.057,0,0
209148.475,408.499,-350.35,0,0
210450.1,460.743,-365.924,0,0
211751.725,498.581,-413.144,0,0
213053.35,508.369,-461.056,0,0
214354.975,506.506,-504.431,0,0
215656.6,492.661,-536.601,0,0
216958.225,483.434,-565.002,0,0
218259.85,460.047,-593.354,0,0
219561,428.696,-608.197,0,0
220863,399.465,-602.946,0,0
222165,385.619,-589.033,0,0
223466,383.857,-577.506,0,0
224768,386.925,-569.439,0,0
226070,397.295,-561.682,0,0
227371,415.852,-567.8,0,0
228673,432.326,-582.213,0,0
229974,442.267,-610.659,0,0
231276,440.374,-643.743,0,0
232578,424.514,-673.034,0,0
233879,400.908,-703.276,0,0
235180.95,356.195,-718.747,0,0
236482.575,319.665,-709.87,0,0
237784.2,294.435,-699.557,0,0
239085.825,272.413,-679.336,0,0
240387.45,268.381,-659.953,0,0
241689.075,263.55,-655.939,0,0
242990.7,249.594,-647.11,0,0
244292.325,242.505,-627.742,0,0
245593.95,248.715,-612.301,0,0
246895.575,252.748,-607.922,0,0
248197.2,253.559,-603.035,0,0
249498.825,256.377,-597.776,0,0
250800,260.788,-595.618,0,0
252102,264.214,-596.19,0,0
253404,266.184,-599.978,0,0
254705,264.106,-605.991,0,0
256007,256.307,-609.615,0,0
257309,246.941,-608.535,0,0
258610,238.18,-602.747,0,0
259912,234.174,-594.646,0,0
261213,231.744,-584.951,0,0
262515,236.695,-573.308,0,0
263817,248.632,-570.426,0,0
265118,255.935,-575.771,0,0
266420,258.775,-579.96,0,0
267721.55,262.244,-585.816,0,0
269023.175,262.041,-593.339,0,0
270324.8,262.541,-597.958,0,0
271626.425,266.281,-607.796,0,0
272928.05,268.822,-628.824,0,0
274229.675,249.629,-656.972,0,0
275531.3,213.194,-668.724,0,0
276832.925,177.523,-659.898,0,0
278134.55,152.482,-638.556,0,0
279436.175,141.524,-614.624,0,0
280737.8,138.45,-594.721,0,0
282039.425,138.324,-581.359,0,0
283341,135.646,-568.637,0,0
284643,135.425,-553.38,0,0
285944,140.377,-540.255,0,0
287246,146.102,-531.574,0,0
288548,149.49,-524.378,0,0
289849,153.427,-515.335,0,0
291151,159.906,-506.791,0,0
292452,167.829,-500.861,0,0
293754,175.802,-496.123,0,0
295056,184.199,-491.947,0,0
296357,194.58,-488.331,0,0
297659,207.644,-487.65,0,0
298960.525,221.089,-491.579,0,0
300262.15,234.3,-498.005,0,0
301563.775,249.327,-509.954,0,0
302865.4,261.737,-533.618,0,0
304167.025,256.577,-563.112,0,0
305468.65,241.277,-583.954,0,0
306770.275,221.412,-597.511,0,0
308071.9,200.16,-602.647,0,0
309373.525,181.028,-601.786,0,0
310675.15,165.331,-596.754,0,0
311976.775,153.264,-590.065,0,0
313278.4,143.76,-583.528,0,0
314580,135.073,-576.536,0,0
315882,128.356,-568.144,0,0
317183,124.389,-560.317,0,0
318485,121.429,-554.108,0,0
319787,118.959,-548.069,0,0
321088,117.738,-543.307,0,0
322390,116.041,-539.968,0,0
323691,113.583,-537.047,0,0
324993,110.722,-533.805,0,0
326295,108.179,-530.313,0,0
327596,105.816,-527.512,0,0
328898,102.71,-525.012,0,0
330200,99.4074,-521.89,0,0
331501.125,96.2019,-519.06,0,0
332802.75,92.1211,-516.34,0,0
334104.375,87.1117,-512.596,0,0
335406.0,82.5597,-507.586,0,0
336707.625,78.4718,-501.895,0,0
338009.25,75.1251,-495.312,0,0
339310.875,72.9856,-488.677,0,0
340612.5,71.3819,-482.235,0,0
341914.125,70.3105,-475.762,0,0
343215.75,70.0644,-469.425,0,0
344517.375,70.5871,-463.474,0,0
345819.0,71.6536,-458.51,0,0
347121,72.4885,-454.485,0,0
348422,72.4946,-450.84,0,0
349724,71.8788,-446.558,0,0
351025,71.6347,-441.824,0,0
352327,71.9577,-436.346,0,0
353629,73.721,-431.347,0,0
354930,75.7842,-427.641,0,0
356232,77.5318,-425.047,0,0
357534,77.8527,-422.912,0,0
358835,77.0593,-419.808,0,0
360137,76.7068,-415.122,0,0
361438,77.7463,-410.048,0,0
362740.1,79.7757,-405.539,0,0
364041.725,82.1733,-401.837,0,0
365343.35,84.8098,-398.692,0,0
366644.975,87.4212,-396.482,0,0
367946.6,89.4746,-394.501,0,0
369248.225,91.709,-393.067,0,0
370549.85,92.8584,-392.791,0,0
371851.475,91.8537,-391.703,0,0
373153.1,91.0878,-388.364,0,0
374454.725,91.6816,-384.55,0,0
375756.35,92.9237,-381.01,0,0
377057.975,94.4601,-377.788,0,0
378359.6,95.9161,-374.372,0,0
379661,98.1905,-370.716,0,0
380963,101.079,-367.793,0,0
382264,103.776,-365.147,0,0
383566,106.931,-362.715,0,0
384868,110.04,-360.871,0,0
386169,112.976,-359.28,0,0
387471,115.833,-357.326,0,0
388773,118.991,-355.371,0,0
390074,123.125,-353.51,0,0
391376,127.476,-352.67,0,0
392677,131.637,-352.11,0,0
393979,136.23,-351.541,0,0
395280.7,141.595,-351.423,0,0
396582.325,147.927,-352.376,0,0
397883.95,155.516,-355.523,0,0
399185.575,161.977,-362.531,0,0
400006.6,164.464,-368.394,0,0