File: Accelerated corrosion test data/2025-10-13_06-00-03/sample_6.csv
Frequency (Hz),Impedance (ohms),Phase (Radians),Temperature (C),Humidity (%)
10000.0,4142.69,-6698.41,0,0
11301.625,3514.36,-6286.54,0,0
12603.25,3018.5,-5899.08,0,0
13904.875,2617.32,-5547.91,0,0
15206.5,2291.4,-5222.52,0,0
16508.125,2023.59,-4926.5,0,0
17809.75,1800.59,-4657.39,0,0
19111.375,1614.47,-4412.13,0,0
20413.0,1455.1,-4190.14,0,0
21714.625,1319.6,-3985.66,0,0
23016.25,1205.47,-3797.08,0,0
24317.875,1103.39,-3629.86,0,0
25619.5,1014.3,-3472.01,0,0
26921.1,936.398,-3325.82,0,0
28222.7,868.515,-3192.16,0,0
29524.4,807.222,-3064.85,0,0
30826,755.276,-2948.26,0,0
32127.6,708.812,-2839,0,0
33429.2,670.746,-2741.69,0,0
34730.9,627.888,-2650.23,0,0
36032.5,590.001,-2564.45,0,0
37334.1,556.845,-2477.83,0,0
38635.7,526.916,-2396.91,0,0
39937.4,504.576,-2320.04,0,0
41239,484.184,-2253.42,0,0
42540.6,460.679,-2191.28,0,0
43842.225,440.034,-2125.78,0,0
45143.85,425.501,-2066.08,0,0
46445.475,412.034,-2013.8,0,0
47747.1,395.933,-1963.37,0,0
49048.725,383.092,-1916.2,0,0
50350.35,367.044,-1874.97,0,0
51651.975,348.661,-1830.36,0,0
52953.6,333.534,-1785.3,0,0
54255.225,318.091,-1742.15,0,0
55556.85,307.529,-1700.29,0,0
56858.475,295.902,-1658,0,0
58160.1,292.316,-1620.06,0,0
59461.7,284.907,-1589.53,0,0
60763.3,273.841,-1559.04,0,0
62065,259.068,-1525.48,0,0
63366.6,254.697,-1487.88,0,0
64668.2,248.183,-1462.37,0,0
65969.8,238.469,-1431.41,0,0
67271.5,231.913,-1402.12,0,0
68573.1,225.921,-1374.44,0,0
69874.7,219.562,-1348.61,0,0
71176.3,212.333,-1323.1,0,0
72478,205.445,-1296.75,0,0
73779.6,199.829,-1271.27,0,0
75081.2,194.955,-1246.88,0,0
76382.825,189.774,-1223.54,0,0
77684.45,184.644,-1200.41,0,0
78986.075,179.843,-1177.58,0,0
80287.7,175.193,-1155.17,0,0
81589.325,170.914,-1132.67,0,0
82890.95,167.323,-1110.37,0,0
84192.575,164.445,-1088.04,0,0
85494.2,163.089,-1066.22,0,0
86795.825,162.679,-1045.84,0,0
88097.45,162.711,-1026.59,0,0
89399.075,163.772,-1008.53,0,0
90700.7,165.195,-993.665,0,0
92002.3,161.848,-980.446,0,0
93303.9,158.42,-963.344,0,0
94605.6,157.627,-945.618,0,0
95907.2,158.203,-930.007,0,0
97208.8,157.854,-916.768,0,0
98510.4,155.325,-902.198,0,0
99812.1,156.035,-887.18,0,0
101114,156.876,-875.944,0,0
102415,154.822,-864.752,0,0
103717,152.46,-854.746,0,0
105019,146.04,-845.068,0,0
106320.175,136.393,-829.659,0,0
107621.8,131.76,-808.706,0,0
108923.425,133.18,-789.103,0,0
110225.05,135.592,-771.739,0,0
111526.675,140.368,-755.83,0,0
112828.3,146.452,-745.576,0,0
114129.925,148.727,-736.689,0,0
115431.55,151.08,-727.19,0,0
116733.175,153.311,-723.548,0,0
118034.8,144.423,-717.353,0,0
119336.425,138.412,-702.009,0,0
120638.05,138.904,-685.231,0,0
121939.675,141.768,-675.392,0,0
123241,140.104,-664.548,0,0
124543,139.826,-653.764,0,0
125845,138.376,-643.048,0,0
127146,136.438,-630.854,0,0
128448,135.881,-616.85,0,0
129749,137.616,-604.192,0,0
131051,138.306,-592.377,0,0
132353,139.387,-579.671,0,0
133654,141.729,-567.217,0,0
134956,144.269,-555.437,0,0
136258,147.181,-543.609,0,0
137559,151.491,-532.378,0,0
138860.775,155.409,-523.402,0,0
140162.4,158.027,-514.34,0,0
141464.025,161.221,-505.384,0,0
142765.65,162.897,-498.083,0,0
144067.275,162.917,-488.407,0,0
145368.9,164.409,-477.363,0,0
146670.525,166.976,-467.966,0,0
147972.15,167.354,-459.125,0,0
149273.775,166.505,-447,0,0
150575.4,167.917,-433.172,0,0
151877.025,170.92,-418.225,0,0
153178.65,178.211,-404.329,0,0
154480,184.11,-394.442,0,0
155782,188.9,-381.842,0,0
157084,197.31,-370.953,0,0
158385,202.641,-362.743,0,0
159687,206.773,-352.433,0,0
160988,211.382,-341.164,0,0
162290,216.4,-329.519,0,0
163592,222.067,-317.014,0,0
164893,227.583,-304.863,0,0
166195,233.29,-290.832,0,0
167497,239.992,-276.111,0,0
168798,248.033,-260.168,0,0
170100,256.97,-244.074,0,0
171401.375,266.507,-226.683,0,0
172703.0,277.604,-207.319,0,0
174004.625,290.904,-186.187,0,0
175306.25,307.621,-162.716,0,0
176607.875,329.363,-138.123,0,0
177909.5,357.026,-113.793,0,0
179211.125,390.817,-91.5262,0,0
180512.75,429.525,-74.7233,0,0
181814.375,469.23,-61.1033,0,0
183116.0,512.481,-50.3501,0,0
184417.625,557.07,-41.7846,0,0
185719.25,606.335,-32.2137,0,0
187021,666.554,-24.5428,0,0
188322,738.002,-26.4015,0,0
189624,818.79,-41.7463,0,0
190926,906.487,-77.3566,0,0
192227,990.989,-137.658,0,0
193529,1065.25,-218.966,0,0
194831,1125.2,-320.621,0,0
196132,1161.57,-441.218,0,0
197434,1165.76,-571.101,0,0
198735,1135.88,-696.113,0,0
200037,1079.73,-804.634,0,0
201339,1004.71,-894.375,0,0
202640.35,915.902,-959.459,0,0
203941.975,825.918,-998.658,0,0
205243.6,741.174,-1018.28,0,0
206545.225,664.29,-1023.59,0,0
207846.85,596.382,-1018.77,0,0
209148.475,537.254,-1006.98,0,0
210450.1,486.118,-991.82,0,0
211751.725,440.594,-973.736,0,0
213053.35,401.317,-953.034,0,0
214354.975,366.912,-931.865,0,0
215656.6,336.695,-908.987,0,0
216958.225,311.657,-885.667,0,0
218259.85,290.13,-863.086,0,0
219561,271.667,-840.535,0,0
220863,256.328,-818.292,0,0
222165,244.011,-796.804,0,0
223466,234.307,-776.242,0,0
224768,227.047,-756.775,0,0
226070,221.613,-738.931,0,0
227371,216.946,-722.865,0,0
228673,212.459,-707.481,0,0
229974,208.762,-691.989,0,0
231276,206.563,-676.488,0,0
232578,206.036,-661.209,0,0
233879,207.036,-646.492,0,0
235180.95,209.949,-632.557,0,0
236482.575,214.581,-619.981,0,0
237784.2,220.784,-608.958,0,0
239085.825,228.373,-599.745,0,0
240387.45,237.025,-592.665,0,0
241689.075,246.18,-587.927,0,0
242990.7,255.609,-585.283,0,0
244292.325,266.126,-584.891,0,0
245593.95,275.956,-589.657,0,0
246895.575,281.59,-596.753,0,0
248197.2,284.651,-603.514,0,0
249498.825,286.364,-609.693,0,0
250800,289.216,-615.986,0,0
252102,291.473,-626.103,0,0
253404,290.807,-638.675,0,0
254705,284.984,-653.006,0,0
256007,273.434,-665.136,0,0
257309,259.139,-673.02,0,0
258610,244.193,-677.06,0,0
259912,229.65,-678.316,0,0
261213,215.795,-677.403,0,0
262515,202.907,-674.682,0,0
263817,191.103,-670.59,0,0
265118,180.452,-665.569,0,0
266420,171.082,-660.123,0,0
267721.55,162.401,-654.452,0,0
269023.175,154.499,-648.486,0,0
270324.8,147.272,-642.419,0,0
271626.425,140.477,-636.184,0,0
272928.05,134.419,-629.814,0,0
274229.675,128.731,-623.463,0,0
275531.3,123.598,-617.077,0,0
276832.925,118.845,-610.651,0,0
278134.55,114.421,-604.192,0,0
279436.175,110.43,-597.597,0,0
280737.8,107.363,-590.744,0,0
282039.425,105.179,-584.767,0,0
283341,102.703,-579.383,0,0
284643,100.37,-573.921,0,0
285944,98.6626,-568.615,0,0
287246,97.0724,-564.283,0,0
288548,94.7298,-560.242,0,0
289849,92.2575,-555.77,0,0
291151,90.0828,-551.332,0,0
292452,88.0512,-547.034,0,0
293754,85.8059,-543.032,0,0
295056,83.2781,-538.748,0,0
296357,80.719,-534.035,0,0
297659,78.752,-528.796,0,0
298960.525,77.7985,-523.916,0,0
300262.15,76.6635,-519.913,0,0
301563.775,75.214,-516.074,0,0
302865.4,73.7499,-511.896,0,0
304167.025,72.3845,-507.778,0,0
305468.65,71.3627,-503.748,0,0
306770.275,70.2902,-500.092,0,0
308071.9,69.0481,-496.45,0,0
309373.525,67.8471,-492.744,0,0
310675.15,66.7437,-488.981,0,0
311976.775,65.6039,-485.412,0,0
313278.4,64.4757,-481.842,0,0
314580,63.3843,-478.215,0,0
315882,62.4167,-474.576,0,0
317183,61.4139,-471.05,0,0
318485,60.4956,-467.573,0,0
319787,59.5981,-464.101,0,0
321088,58.8241,-460.531,0,0
322390,58.0592,-457.138,0,0
323691,57.3852,-453.812,0,0
324993,56.6606,-450.623,0,0
326295,55.8924,-447.338,0,0
327596,55.0693,-444.076,0,0
328898,54.3745,-440.782,0,0
330200,53.8021,-437.409,0,0
331501.125,53.221,-434.106,0,0
332802.75,52.7974,-430.857,0,0
334104.375,52.3071,-427.676,0,0
335406.0,51.9788,-424.58,0,0
336707.625,51.6202,-421.453,0,0
338009.25,51.2345,-418.373,0,0
339310.875,50.8993,-415.354,0,0
340612.5,50.584,-412.284,0,0
341914.125,50.3863,-409.197,0,0
343215.75,50.3815,-406.214,0,0
344517.375,50.3053,-403.495,0,0
345819.0,50.0817,-400.716,0,0
347121,49.9201,-397.817,0,0
348422,49.9195,-394.917,0,0
349724,49.968,-392.181,0,0
351025,50.1447,-389.504,0,0
352327,50.2725,-387.001,0,0
353629,50.4241,-384.578,0,0
354930,50.483,-382.352,0,0
356232,50.4264,-380.115,0,0
357534,50.2243,-377.824,0,0
358835,50.0103,-375.513,0,0
360137,49.8262,-373.214,0,0
361438,49.5917,-370.868,0,0
362740.1,49.3593,-368.459,0,0
364041.725,49.1685,-365.975,0,0
365343.35,49.0642,-363.516,0,0
366644.975,49.0217,-361.057,0,0
367946.6,48.9938,-358.703,0,0
369248.225,48.9963,-356.396,0,0
370549.85,48.9516,-353.988,0,0
371851.475,49.044,-351.655,0,0
373153.1,49.1902,-349.489,0,0
374454.725,49.2493,-347.545,0,0
375756.35,48.9248,-345.575,0,0
377057.975,48.5207,-343.326,0,0
378359.6,48.2283,-340.961,0,0
379661,47.9588,-338.535,0,0
380963,47.7147,-335.97,0,0
382264,47.7063,-333.335,0,0
383566,48.0062,-330.878,0,0
384868,48.0052,-328.762,0,0
386169,47.8367,-326.437,0,0
387471,47.7608,-323.979,0,0
388773,47.6885,-321.459,0,0
390074,47.6844,-318.964,0,0
391376,47.6986,-316.405,0,0
392677,47.804,-313.834,0,0
393979,47.8833,-311.263,0,0
395280.7,48.0285,-308.648,0,0
396582.325,48.1994,-305.988,0,0
397883.95,48.4346,-303.323,0,0
399185.575,48.6973,-300.62,0,0
400006.6,48.9155,-298.922,0,0