File: Accelerated corrosion test data/2025-10-13_06-00-03/sample_4.csv
Frequency (Hz),Impedance (ohms),Phase (Radians),Temperature (C),Humidity (%)
10000.0,264.967,-11881.6,0,0
11301.625,235.415,-10526.5,0,0
12603.25,213.943,-9444.48,0,0
13904.875,194.889,-8562.12,0,0
15206.5,182.052,-7837.96,0,0
16508.125,188.143,-7227.24,0,0
17809.75,156.776,-6715.52,0,0
19111.375,146.102,-6258.11,0,0
20413.0,141.265,-5857.35,0,0
21714.625,146.116,-5510.5,0,0
23016.25,125.902,-5211.8,0,0
24317.875,116.612,-4927.12,0,0
25619.5,113.681,-4673.13,0,0
26921.1,107.01,-4444.25,0,0
28222.7,121.567,-4240.74,0,0
29524.4,116.308,-4062.09,0,0
30826,99.483,-3889.18,0,0
32127.6,101.105,-3729.59,0,0
33429.2,90.6651,-3587.71,0,0
34730.9,85.5532,-3449.52,0,0
36032.5,82.1283,-3321.66,0,0
37334.1,80.1547,-3202.86,0,0
38635.7,77.7746,-3091.03,0,0
39937.4,77.47,-2985.64,0,0
41239,81.1461,-2889.97,0,0
42540.6,79.5253,-2803.68,0,0
43842.225,74.2005,-2719.41,0,0
45143.85,71.3096,-2638.02,0,0
46445.475,71.0958,-2560.83,0,0
47747.1,70.2283,-2491.11,0,0
49048.725,66.3517,-2421.66,0,0
50350.35,65.0825,-2354.47,0,0
51651.975,64.4791,-2290.13,0,0
52953.6,66.3063,-2226.8,0,0
54255.225,74.0584,-2170.08,0,0
55556.85,71.9655,-2127.1,0,0
56858.475,65.947,-2073.34,0,0
58160.1,66.8336,-2020.8,0,0
59461.7,70.8165,-1970.39,0,0
60763.3,81.0729,-1932.97,0,0
62065,70.3369,-1899.13,0,0
63366.6,64.6209,-1853.55,0,0
64668.2,64.7486,-1810.43,0,0
65969.8,66.7825,-1769.54,0,0
67271.5,70.0478,-1733.38,0,0
68573.1,74.1847,-1704.32,0,0
69874.7,66.5081,-1674.97,0,0
71176.3,65.0326,-1639.81,0,0
72478,59.4938,-1608.79,0,0
73779.6,57.9827,-1572.45,0,0
75081.2,59.8745,-1539.28,0,0
76382.825,62.3405,-1510.6,0,0
77684.45,65.4087,-1482.43,0,0
78986.075,64.2311,-1460.25,0,0
80287.7,61.2687,-1433.42,0,0
81589.325,60.7889,-1407.47,0,0
82890.95,59.5185,-1382.54,0,0
84192.575,58.2467,-1357.78,0,0
85494.2,57.314,-1333.5,0,0
86795.825,56.4989,-1309.85,0,0
88097.45,55.0506,-1287.05,0,0
89399.075,53.7008,-1262.85,0,0
90700.7,53.6461,-1239.79,0,0
92002.3,53.9804,-1216.59,0,0
93303.9,55.2583,-1195.71,0,0
94605.6,53.8762,-1175.66,0,0
95907.2,53.2117,-1153.34,0,0
97208.8,53.8345,-1131.56,0,0
98510.4,54.9141,-1110.07,0,0
99812.1,57.2778,-1089.46,0,0
101114,61.3831,-1070.47,0,0
102415,60.7941,-1055.75,0,0
103717,58.0163,-1033.52,0,0
105019,61.3841,-1010,0,0
106320.175,67.7895,-989.414,0,0
107621.8,74.2916,-971.297,0,0
108923.425,82.4495,-954.238,0,0
110225.05,90.6946,-941.168,0,0
111526.675,96.9377,-929.987,0,0
112828.3,102.386,-919.701,0,0
114129.925,106.265,-910.749,0,0
115431.55,108.622,-902.608,0,0
116733.175,108.706,-894.214,0,0
118034.8,107.213,-883.697,0,0
119336.425,108.19,-870.363,0,0
120638.05,113.919,-865.495,0,0
121939.675,106.648,-859.664,0,0
123241,101.62,-847.393,0,0
124543,98.6854,-834.859,0,0
125845,97.1228,-822.701,0,0
127146,93.8127,-812.437,0,0
128448,89.02,-801.171,0,0
129749,81.7256,-787.371,0,0
131051,76.2643,-769.562,0,0
132353,73.3609,-750.684,0,0
133654,72.3435,-731.688,0,0
134956,72.6674,-712.726,0,0
136258,74.5514,-694.175,0,0
137559,77.254,-676.675,0,0
138860.775,79.1071,-658.8,0,0
140162.4,82.325,-639.755,0,0
141464.025,87.3782,-620.778,0,0
142765.65,93.2934,-602.583,0,0
144067.275,99.8731,-584.491,0,0
145368.9,107.319,-566.056,0,0
146670.525,116.238,-547.337,0,0
147972.15,126.874,-529.239,0,0
149273.775,139.136,-511.028,0,0
150575.4,153.356,-493.002,0,0
151877.025,171.657,-476.262,0,0
153178.65,193.922,-463.583,0,0
154480,215.731,-458.033,0,0
155782,233.694,-453.471,0,0
157084,249.207,-452.028,0,0
158385,263.779,-447.278,0,0
159687,282.883,-444.731,0,0
160988,301.679,-450.986,0,0
162290,309.116,-457.23,0,0
163592,312.809,-457.949,0,0
164893,320.556,-451.756,0,0
166195,334.754,-442.596,0,0
167497,360.9,-440.009,0,0
168798,388.631,-453.984,0,0
170100,408.537,-480.215,0,0
171401.375,408.812,-518.878,0,0
172703.0,386.29,-547.496,0,0
174004.625,353.477,-556.06,0,0
175306.25,324.71,-547.39,0,0
176607.875,304.307,-526.16,0,0
177909.5,296.889,-502.327,0,0
179211.125,295.543,-480.917,0,0
180512.75,299.054,-461.692,0,0
181814.375,303.463,-445.312,0,0
183116.0,306.474,-428.771,0,0
184417.625,310.506,-409.089,0,0
185719.25,317.224,-386.361,0,0
187021,328.353,-361.717,0,0
188322,343.905,-334.933,0,0
189624,366.028,-306.546,0,0
190926,396.864,-278.168,0,0
192227,436.816,-253.01,0,0
193529,485.192,-234.295,0,0
194831,540.473,-223.323,0,0
196132,601.056,-219.936,0,0
197434,671.043,-225.919,0,0
198735,750.511,-249.563,0,0
200037,832.575,-303.184,0,0
201339,895.83,-387.846,0,0
202640.35,926.46,-486.057,0,0
203941.975,931.815,-581.606,0,0
205243.6,911.85,-671.659,0,0
206545.225,878.129,-747.173,0,0
207846.85,831.364,-818.804,0,0
209148.475,763.756,-868.112,0,0
210450.1,698.91,-889.656,0,0
211751.725,642.644,-895.799,0,0
213053.35,598.751,-892.615,0,0
214354.975,565.613,-883.471,0,0
215656.6,547.22,-880.843,0,0
216958.225,524.677,-886.727,0,0
218259.85,500.036,-888.916,0,0
219561,477.3,-890.03,0,0
220863,453.988,-891.327,0,0
222165,430.712,-890.212,0,0
223466,409.583,-887.737,0,0
224768,389.981,-886.843,0,0
226070,367.015,-887.129,0,0
227371,341.164,-884.023,0,0
228673,313.806,-875.563,0,0
229974,289.786,-861.016,0,0
231276,271.021,-843.874,0,0
232578,256.316,-826.662,0,0
233879,244.715,-809.972,0,0
235180.95,235.671,-793.791,0,0
236482.575,227.917,-779.082,0,0
237784.2,221.713,-763.567,0,0
239085.825,219.273,-749.347,0,0
240387.45,218.067,-737.997,0,0
241689.075,216.673,-729.25,0,0
242990.7,214.232,-721.989,0,0
244292.325,210.316,-715.742,0,0
245593.95,204.31,-707.874,0,0
246895.575,198.971,-697.994,0,0
248197.2,195.85,-687.339,0,0
249498.825,193.695,-677.45,0,0
250800,192.62,-668.512,0,0
252102,189.918,-661.364,0,0
253404,184.692,-651.511,0,0
254705,181.334,-638.643,0,0
256007,179.286,-623.254,0,0
257309,181.931,-605.567,0,0
258610,189.997,-587.837,0,0
259912,203.943,-572.858,0,0
261213,222.34,-562.143,0,0
262515,242.726,-558.615,0,0
263817,264.253,-561.56,0,0
265118,282.885,-571.613,0,0
266420,297.503,-587.683,0,0
267721.55,306.329,-608.157,0,0
269023.175,305.435,-633.283,0,0
270324.8,291.511,-650.924,0,0
271626.425,280.818,-659.321,0,0
272928.05,270.754,-668.201,0,0
274229.675,259.127,-677.603,0,0
275531.3,241.327,-685.488,0,0
276832.925,220.21,-685.683,0,0
278134.55,200.275,-676.968,0,0
279436.175,188.657,-661.219,0,0
280737.8,186.469,-649.342,0,0
282039.425,184.669,-641.304,0,0
283341,185.521,-634.781,0,0
284643,185.014,-633.231,0,0
285944,181.183,-632.645,0,0
287246,172.939,-628.76,0,0
288548,166.211,-618.72,0,0
289849,166.846,-604.974,0,0
291151,175.092,-595.478,0,0
292452,186.645,-593.244,0,0
293754,196.275,-600.052,0,0
295056,198.523,-612.022,0,0
296357,191.839,-623.077,0,0
297659,180.7,-627.605,0,0
298960.525,170.977,-627.653,0,0
300262.15,162.588,-626.598,0,0
301563.775,154.056,-624.262,0,0
302865.4,146.636,-620.397,0,0
304167.025,139.609,-615.799,0,0
305468.65,133.818,-610.161,0,0
306770.275,129.394,-604.032,0,0
308071.9,126.799,-598.324,0,0
309373.525,124.852,-594.2,0,0
310675.15,121.756,-590.92,0,0
311976.775,118.231,-586.668,0,0
313278.4,115.405,-581.82,0,0
314580,113.792,-577.086,0,0
315882,112.615,-573.253,0,0
317183,111.682,-570.129,0,0
318485,110.473,-568.202,0,0
319787,108.608,-566.964,0,0
321088,105.12,-566.633,0,0
322390,99.0369,-565.571,0,0
323691,91.8885,-561.057,0,0
324993,86.9757,-554.211,0,0
326295,83.707,-547.661,0,0
327596,80.9733,-541.186,0,0
328898,78.8568,-534.254,0,0
330200,78.5293,-526.96,0,0
331501.125,79.6054,-521.124,0,0
332802.75,80.8261,-516.894,0,0
334104.375,80.8944,-514.174,0,0
335406.0,79.4479,-511.114,0,0
336707.625,77.3756,-506.98,0,0
338009.25,75.7735,-501.39,0,0
339310.875,75.2635,-495.266,0,0
340612.5,75.9664,-488.749,0,0
341914.125,78.614,-482.576,0,0
343215.75,82.9413,-478.501,0,0
344517.375,86.9038,-477.08,0,0
345819.0,89.1938,-477.172,0,0
347121,89.6009,-477.655,0,0
348422,88.676,-477.626,0,0
349724,86.7437,-476.582,0,0
351025,84.8548,-474.591,0,0
352327,82.814,-471.785,0,0
353629,81.5618,-467.979,0,0
354930,81.5099,-464.494,0,0
356232,81.5806,-461.759,0,0
357534,81.2171,-459.62,0,0
358835,79.9787,-456.921,0,0
360137,78.9186,-453.488,0,0
361438,78.2934,-449.398,0,0
362740.1,78.9373,-445.334,0,0
364041.725,79.5532,-442.423,0,0
365343.35,79.4527,-439.137,0,0
366644.975,79.5412,-434.782,0,0
367946.6,81.0425,-429.945,0,0
369248.225,83.8789,-425.341,0,0
370549.85,88.0736,-421.832,0,0
371851.475,93.5461,-419.935,0,0
373153.1,98.8795,-421.068,0,0
374454.725,101.861,-424.557,0,0
375756.35,101.59,-427.432,0,0
377057.975,100.793,-428.565,0,0
378359.6,100.409,-429.446,0,0
379661,99.3064,-430.355,0,0
380963,97.7208,-430.74,0,0
382264,96.6549,-429.589,0,0
383566,97.8394,-430.345,0,0
384868,96.2313,-433.708,0,0
386169,91.4389,-435.639,0,0
387471,85.5896,-434.444,0,0
388773,81.4703,-430.434,0,0
390074,80.4225,-426.239,0,0
391376,80.8481,-424.442,0,0
392677,79.7127,-425.275,0,0
393979,75.4456,-425.086,0,0
395280.7,70.7436,-422.561,0,0
396582.325,66.9279,-418.406,0,0
397883.95,64.3998,-413.844,0,0
399185.575,62.3228,-409.054,0,0
400006.6,61.4439,-405.829,0,0