File: Accelerated corrosion test data/2025-10-13_06-00-03/sample_3.csv
Frequency (Hz),Impedance (ohms),Phase (Radians),Temperature (C),Humidity (%)
10000.0,253.494,-11807.6,0,0
11301.625,225.727,-10458.8,0,0
12603.25,204.842,-9386.3,0,0
13904.875,187.419,-8512.96,0,0
15206.5,175.003,-7780.52,0,0
16508.125,162.77,-7185.01,0,0
17809.75,158.176,-6657.05,0,0
19111.375,147.748,-6204.75,0,0
20413.0,162.348,-5805.95,0,0
21714.625,140.603,-5481.08,0,0
23016.25,128.865,-5175.69,0,0
24317.875,120.873,-4895.94,0,0
25619.5,114.195,-4649.01,0,0
26921.1,109.784,-4418.58,0,0
28222.7,105.461,-4210,0,0
29524.4,109.246,-4034.63,0,0
30826,102.399,-3862.01,0,0
32127.6,102.842,-3696.66,0,0
33429.2,100.581,-3573.07,0,0
34730.9,88.5001,-3434.51,0,0
36032.5,83.8951,-3306.58,0,0
37334.1,80.7918,-3188.3,0,0
38635.7,78.6151,-3078.24,0,0
39937.4,76.2326,-2975.38,0,0
41239,74.8947,-2878.58,0,0
42540.6,73.6417,-2788.51,0,0
43842.225,72.5486,-2702.88,0,0
45143.85,71.2065,-2623.3,0,0
46445.475,70.094,-2547.09,0,0
47747.1,71.0105,-2474.84,0,0
49048.725,68.9578,-2409.21,0,0
50350.35,66.8922,-2343.87,0,0
51651.975,66.6472,-2281.35,0,0
52953.6,66.7355,-2221.49,0,0
54255.225,69.736,-2166.3,0,0
55556.85,67.1086,-2118.89,0,0
56858.475,61.9141,-2065.93,0,0
58160.1,61.3837,-2014,0,0
59461.7,61.9176,-1964.69,0,0
60763.3,63.2709,-1917.88,0,0
62065,65.3858,-1873.08,0,0
63366.6,68.6404,-1829.44,0,0
64668.2,77.1324,-1787.98,0,0
65969.8,92.9402,-1761.67,0,0
67271.5,75.9451,-1736.77,0,0
68573.1,75.8027,-1698.84,0,0
69874.7,76.1705,-1669.63,0,0
71176.3,71.4678,-1638.9,0,0
72478,70.1311,-1606.35,0,0
73779.6,68.6954,-1578.29,0,0
75081.2,64.9747,-1550.21,0,0
76382.825,61.313,-1521.05,0,0
77684.45,58.5908,-1492.18,0,0
78986.075,56.3688,-1463.67,0,0
80287.7,54.7268,-1435.59,0,0
81589.325,53.6324,-1408.31,0,0
82890.95,53.0723,-1381.79,0,0
84192.575,52.7156,-1356.16,0,0
85494.2,52.6403,-1331.17,0,0
86795.825,52.7192,-1306.78,0,0
88097.45,53.2776,-1282.84,0,0
89399.075,54.477,-1259.05,0,0
90700.7,56.6199,-1237.23,0,0
92002.3,58.9594,-1216.3,0,0
93303.9,61.7779,-1197.49,0,0
94605.6,63.0671,-1183.04,0,0
95907.2,57.8445,-1165.19,0,0
97208.8,56.4967,-1143.9,0,0
98510.4,56.3422,-1124.26,0,0
99812.1,55.8368,-1105.33,0,0
101114,55.4187,-1085.7,0,0
102415,56.7515,-1065.15,0,0
103717,60.4089,-1047.44,0,0
105019,63.9441,-1033.29,0,0
106320.175,63.3602,-1019.63,0,0
107621.8,61.1428,-1004.1,0,0
108923.425,59.1997,-986.724,0,0
110225.05,59.0091,-968.199,0,0
111526.675,61.2913,-950.331,0,0
112828.3,63.5695,-934.218,0,0
114129.925,64.864,-918.474,0,0
115431.55,66.8207,-901.595,0,0
116733.175,70.3644,-884.938,0,0
118034.8,76.1296,-868.876,0,0
119336.425,82.9985,-856.367,0,0
120638.05,89.1766,-850.198,0,0
121939.675,86.0357,-842.092,0,0
123241,86.6372,-828.586,0,0
124543,88.2041,-816.886,0,0
125845,89.7764,-806.551,0,0
127146,89.3838,-796.85,0,0
128448,87.762,-786.131,0,0
129749,86.5545,-773.355,0,0
131051,87.5276,-760.797,0,0
132353,86.6497,-749.666,0,0
133654,86.0028,-737.779,0,0
134956,84.5791,-725.168,0,0
136258,83.1763,-711.812,0,0
137559,82.9955,-696.759,0,0
138860.775,84.316,-683.435,0,0
140162.4,83.6032,-669.94,0,0
141464.025,83.2078,-656.146,0,0
142765.65,82.2431,-640.253,0,0
144067.275,82.5763,-623.157,0,0
145368.9,83.9984,-605.193,0,0
146670.525,86.6235,-586.43,0,0
147972.15,90.7164,-566.875,0,0
149273.775,97.113,-546.493,0,0
150575.4,107.148,-526.315,0,0
151877.025,119.243,-509.165,0,0
153178.65,132.201,-495.124,0,0
154480,142.658,-482.9,0,0
155782,150.711,-467.526,0,0
157084,162.271,-449.56,0,0
158385,179.04,-438.658,0,0
159687,183.511,-424.585,0,0
160988,198.201,-397.602,0,0
162290,222.519,-370.79,0,0
163592,258.544,-350.231,0,0
164893,305.241,-337.487,0,0
166195,356.678,-349.637,0,0
167497,394.337,-377.476,0,0
168798,419.14,-411.77,0,0
170100,422.087,-453.325,0,0
171401.375,411.388,-470.806,0,0
172703.0,406.141,-477.433,0,0
174004.625,414.735,-485.566,0,0
175306.25,416.549,-503.98,0,0
176607.875,414.458,-524.287,0,0
177909.5,392.192,-544.647,0,0
179211.125,366.32,-537.108,0,0
180512.75,360.956,-522.009,0,0
181814.375,367.44,-518.849,0,0
183116.0,359.493,-525.984,0,0
184417.625,344.97,-524.582,0,0
185719.25,329.918,-513.161,0,0
187021,322.852,-490.592,0,0
188322,328.268,-470.708,0,0
189624,332.867,-456.003,0,0
190926,341.927,-441.297,0,0
192227,350.596,-427.656,0,0
193529,361.297,-408.603,0,0
194831,384.189,-391.115,0,0
196132,415.358,-384.773,0,0
197434,438.745,-395.696,0,0
198735,451.642,-401.833,0,0
200037,463.004,-405.576,0,0
201339,469.198,-400.574,0,0
202640.35,488.053,-390.4,0,0
203941.975,519.228,-389.927,0,0
205243.6,547.953,-403.095,0,0
206545.225,560.488,-419.71,0,0
207846.85,576.667,-420.213,0,0
209148.475,609.143,-426.016,0,0
210450.1,643.014,-446.946,0,0
211751.725,671.443,-479.233,0,0
213053.35,692.638,-514.428,0,0
214354.975,708.008,-557.413,0,0
215656.6,713.553,-602.553,0,0
216958.225,712.257,-648.772,0,0
218259.85,698.952,-692.899,0,0
219561,679.819,-729.753,0,0
220863,660.882,-765.986,0,0
222165,632.775,-804.034,0,0
223466,589.424,-832.593,0,0
224768,545.164,-836.617,0,0
226070,522.501,-833.2,0,0
227371,505.349,-841.087,0,0
228673,480.247,-853.335,0,0
229974,452.66,-858.724,0,0
231276,424.931,-860.99,0,0
232578,399.573,-859.382,0,0
233879,375.452,-856.724,0,0
235180.95,352.63,-852.247,0,0
236482.575,329.324,-847.718,0,0
237784.2,305.295,-840.471,0,0
239085.825,281.155,-827.252,0,0
240387.45,263.146,-810.479,0,0
241689.075,248.253,-792.832,0,0
242990.7,238.928,-775.142,0,0
244292.325,233.495,-760.365,0,0
245593.95,227.404,-748.311,0,0
246895.575,221.822,-735.683,0,0
248197.2,217.456,-723.128,0,0
249498.825,216.808,-711.437,0,0
250800,216.149,-705.192,0,0
252102,210.438,-699.789,0,0
253404,202.406,-689.848,0,0
254705,196.701,-675.466,0,0
256007,196.279,-657.945,0,0
257309,203.87,-643.494,0,0
258610,211.488,-634.496,0,0
259912,223.303,-625.231,0,0
261213,239.512,-625.412,0,0
262515,250.702,-637.1,0,0
263817,250.673,-651.683,0,0
265118,241.722,-663.487,0,0
266420,227.334,-668.553,0,0
267721.55,212.174,-665.169,0,0
269023.175,202.463,-656.335,0,0
270324.8,196.346,-647.348,0,0
271626.425,193.809,-637.956,0,0
272928.05,192.852,-631.005,0,0
274229.675,191.641,-622.665,0,0
275531.3,194.424,-614.132,0,0
276832.925,201.275,-608.105,0,0
278134.55,209.652,-608.673,0,0
279436.175,214.143,-614.449,0,0
280737.8,213.513,-621.636,0,0
282039.425,208.501,-627.515,0,0
283341,200.948,-630.446,0,0
284643,192.17,-630.355,0,0
285944,183.963,-626.902,0,0
287246,178.218,-620.814,0,0
288548,176.255,-614.966,0,0
289849,175.574,-611.798,0,0
291151,173.783,-610.368,0,0
292452,169.575,-608.066,0,0
293754,166.966,-602.767,0,0
295056,167.671,-598.495,0,0
296357,169.507,-597.442,0,0
297659,169.608,-599.228,0,0
298960.525,166.682,-601.488,0,0
300262.15,162.102,-602.764,0,0
301563.775,156.215,-602.885,0,0
302865.4,149.822,-601.156,0,0
304167.025,143.807,-598.171,0,0
305468.65,138.369,-593.852,0,0
306770.275,134.387,-588.614,0,0
308071.9,132.08,-583.734,0,0
309373.525,130.303,-580.29,0,0
310675.15,127.888,-577.723,0,0
311976.775,124.394,-575.105,0,0
313278.4,120.029,-571.267,0,0
314580,116.298,-565.601,0,0
315882,114.639,-559.117,0,0
317183,115.1,-553.771,0,0
318485,115.729,-550.256,0,0
319787,115.552,-547.292,0,0
321088,115.63,-544.177,0,0
322390,116.932,-541.827,0,0
323691,117.891,-541.781,0,0
324993,116.851,-542.93,0,0
326295,113.874,-543.685,0,0
327596,109.693,-543.31,0,0
328898,105.105,-541.702,0,0
330200,100.939,-539.141,0,0
331501.125,96.7263,-536.432,0,0
332802.75,92.3487,-532.951,0,0
334104.375,87.9511,-528.704,0,0
335406.0,84.0441,-523.397,0,0
336707.625,81.0718,-517.471,0,0
338009.25,78.9572,-511.527,0,0
339310.875,77.4157,-505.067,0,0
340612.5,77.2439,-498.263,0,0
341914.125,78.8684,-492.162,0,0
343215.75,81.3919,-487.902,0,0
344517.375,83.4505,-485.58,0,0
345819.0,83.8441,-483.974,0,0
347121,83.5571,-481.761,0,0
348422,82.9649,-479.257,0,0
349724,82.4047,-475.687,0,0
351025,83.2598,-471.989,0,0
352327,85.1536,-470.114,0,0
353629,85.4571,-469.744,0,0
354930,84.1348,-468.761,0,0
356232,82.5324,-466.855,0,0
357534,80.9296,-464.322,0,0
358835,79.6532,-460.991,0,0
360137,79.4007,-457.521,0,0
361438,79.3754,-454.76,0,0
362740.1,79.0486,-451.954,0,0
364041.725,79.4798,-448.55,0,0
365343.35,80.9657,-446.467,0,0
366644.975,81.4476,-446.053,0,0
367946.6,79.9346,-445.338,0,0
369248.225,77.6093,-442.826,0,0
370549.85,76.9951,-438.501,0,0
371851.475,78.7531,-435.832,0,0
373153.1,79.1987,-435.456,0,0
374454.725,77.471,-434.41,0,0
375756.35,75.5493,-431.774,0,0
377057.975,74.7275,-428.039,0,0
378359.6,75.1189,-424.526,0,0
379661,76.1449,-421.812,0,0
380963,77.1267,-420.299,0,0
382264,77.1008,-419.101,0,0
383566,76.8673,-417.731,0,0
384868,75.8896,-416.453,0,0
386169,74.6301,-414.374,0,0
387471,73.4396,-411.848,0,0
388773,72.3006,-408.648,0,0
390074,71.8438,-404.643,0,0
391376,72.5396,-400.542,0,0
392677,74.4815,-397.039,0,0
393979,76.894,-394.733,0,0
395280.7,79.1123,-393.487,0,0
396582.325,80.8648,-393.037,0,0
397883.95,82.0425,-393.254,0,0
399185.575,82.0827,-393.788,0,0
400006.6,81.6774,-393.921,0,0