File: Accelerated corrosion test data/2025-10-13_06-00-03/sample_7.csv
Frequency (Hz),Impedance (ohms),Phase (Radians),Temperature (C),Humidity (%)
10000.0,278.149,-12110,0,0
11301.625,251.659,-10712.8,0,0
12603.25,264.976,-9652.86,0,0
13904.875,211.731,-8766.83,0,0
15206.5,196.676,-8027.6,0,0
16508.125,174.281,-7384.81,0,0
17809.75,174.64,-6831.26,0,0
19111.375,189.096,-6374.45,0,0
20413.0,166.349,-5996.39,0,0
21714.625,156.863,-5653.1,0,0
23016.25,131.978,-5326.91,0,0
24317.875,125.471,-5033.08,0,0
25619.5,121.097,-4769.22,0,0
26921.1,125.753,-4522.8,0,0
28222.7,180.623,-4315.52,0,0
29524.4,142.609,-4180.21,0,0
30826,134.96,-3994.24,0,0
32127.6,120.328,-3849.33,0,0
33429.2,102.778,-3698.07,0,0
34730.9,93.7862,-3552.85,0,0
36032.5,90.0361,-3418.88,0,0
37334.1,87.4305,-3294.92,0,0
38635.7,87.8858,-3177.38,0,0
39937.4,99.0229,-3077.72,0,0
41239,87.8374,-2990.28,0,0
42540.6,81.4813,-2894,0,0
43842.225,80.4388,-2804.36,0,0
45143.85,81.4456,-2726.55,0,0
46445.475,77.7721,-2655.25,0,0
47747.1,71.7077,-2578.11,0,0
49048.725,69.038,-2507.78,0,0
50350.35,67.1099,-2440.56,0,0
51651.975,65.1961,-2376.83,0,0
52953.6,64.5082,-2316.23,0,0
54255.225,63.0206,-2259.2,0,0
55556.85,61.7977,-2204.61,0,0
56858.475,61.0422,-2152.09,0,0
58160.1,60.4737,-2101.51,0,0
59461.7,60.4098,-2054,0,0
60763.3,59.7261,-2010.17,0,0
62065,57.7163,-1966.65,0,0
63366.6,56.5271,-1923.73,0,0
64668.2,55.8786,-1883.08,0,0
65969.8,55.6044,-1844.49,0,0
67271.5,53.9289,-1807.66,0,0
68573.1,52.8089,-1770.96,0,0
69874.7,52.0878,-1735.51,0,0
71176.3,52.0599,-1701.83,0,0
72478,50.9111,-1669.5,0,0
73779.6,49.9897,-1637.62,0,0
75081.2,49.5313,-1606.8,0,0
76382.825,48.9759,-1576.91,0,0
77684.45,48.7681,-1548.01,0,0
78986.075,48.3457,-1519.93,0,0
80287.7,48.1615,-1492.91,0,0
81589.325,47.8484,-1466.55,0,0
82890.95,47.5905,-1440.88,0,0
84192.575,47.5951,-1415.69,0,0
85494.2,47.8536,-1391.58,0,0
86795.825,47.8182,-1368.07,0,0
88097.45,48.0358,-1345.38,0,0
89399.075,47.7573,-1322.93,0,0
90700.7,47.9685,-1300.83,0,0
92002.3,48.344,-1279.08,0,0
93303.9,48.8739,-1257.85,0,0
94605.6,50.739,-1237.92,0,0
95907.2,50.7565,-1220.19,0,0
97208.8,49.9888,-1200.49,0,0
98510.4,50.9246,-1181.26,0,0
99812.1,50.7128,-1162.77,0,0
101114,52.1149,-1143.6,0,0
102415,53.5979,-1125.54,0,0
103717,56.3416,-1108.69,0,0
105019,57.5816,-1093.46,0,0
106320.175,56.9653,-1077.73,0,0
107621.8,57.959,-1061.27,0,0
108923.425,59.0169,-1044.99,0,0
110225.05,59.5654,-1028.25,0,0
111526.675,62.3135,-1011.34,0,0
112828.3,66.7142,-995.355,0,0
114129.925,71.5518,-981.092,0,0
115431.55,77.9471,-968.072,0,0
116733.175,85.6016,-959.273,0,0
118034.8,89.6539,-953.592,0,0
119336.425,93.064,-951.086,0,0
120638.05,86.5142,-951.29,0,0
121939.675,75.8746,-941.473,0,0
123241,68.223,-928.435,0,0
124543,63.9839,-913.853,0,0
125845,60.0898,-899.552,0,0
127146,56.5653,-885.035,0,0
128448,54.8372,-870.3,0,0
129749,53.1657,-855.563,0,0
131051,51.9067,-841.2,0,0
132353,51.3876,-825.852,0,0
133654,51.5621,-810.262,0,0
134956,54.3852,-795.177,0,0
136258,58.5943,-782.381,0,0
137559,59.9902,-774.194,0,0
138860.775,57.4978,-762.112,0,0
140162.4,57.6122,-748.442,0,0
141464.025,57.7177,-734.742,0,0
142765.65,58.8477,-720.591,0,0
144067.275,61.407,-707.153,0,0
145368.9,63.2176,-695.059,0,0
146670.525,64.1074,-681.783,0,0
147972.15,66.3331,-668.401,0,0
149273.775,66.4659,-655.414,0,0
150575.4,67.0801,-639.676,0,0
151877.025,69.2272,-622.431,0,0
153178.65,73.5232,-604.331,0,0
154480,79.6437,-586.017,0,0
155782,88.1376,-567.645,0,0
157084,99.4665,-550.032,0,0
158385,113.347,-535.71,0,0
159687,124.688,-526.685,0,0
160988,129.306,-513.423,0,0
162290,138.223,-490.114,0,0
163592,156.633,-465.341,0,0
164893,183.829,-445.449,0,0
166195,213.953,-425.069,0,0
167497,260.709,-410.371,0,0
168798,319.323,-414.452,0,0
170100,375.325,-446.486,0,0
171401.375,407.952,-500.757,0,0
172703.0,421.301,-561.649,0,0
174004.625,392.974,-621.206,0,0
175306.25,350.639,-643.562,0,0
176607.875,322.575,-632.58,0,0
177909.5,331.408,-628.229,0,0
179211.125,335.498,-664.397,0,0
180512.75,303.051,-688.802,0,0
181814.375,264.513,-704.925,0,0
183116.0,220.678,-695.326,0,0
184417.625,189.667,-674.554,0,0
185719.25,167.903,-651.968,0,0
187021,153.498,-624.351,0,0
188322,148.747,-600.058,0,0
189624,143.785,-580.676,0,0
190926,137.596,-558.777,0,0
192227,135.58,-535.523,0,0
193529,137.192,-510.153,0,0
194831,142.886,-485.42,0,0
196132,153.649,-463.315,0,0
197434,165.713,-445.258,0,0
198735,175.319,-428.938,0,0
200037,184.086,-408.5,0,0
201339,198.219,-385.497,0,0
202640.35,218.68,-360.944,0,0
203941.975,246.79,-339.388,0,0
205243.6,281.73,-320.725,0,0
206545.225,326.489,-314.789,0,0
207846.85,361.744,-321.826,0,0
209148.475,397.557,-319.238,0,0
210450.1,452.916,-331.221,0,0
211751.725,498.513,-372.714,0,0
213053.35,520.256,-423.14,0,0
214354.975,526.598,-466.855,0,0
215656.6,526.465,-504.048,0,0
216958.225,525.131,-546.067,0,0
218259.85,505.679,-585.655,0,0
219561,470.561,-616.035,0,0
220863,433.657,-619.408,0,0
222165,411.98,-609.175,0,0
223466,405.052,-600.404,0,0
224768,401.178,-597.136,0,0
226070,403.487,-588.619,0,0
227371,415.919,-590.866,0,0
228673,427.657,-603.19,0,0
229974,434.745,-624.522,0,0
231276,432.624,-654.573,0,0
232578,420.226,-683.856,0,0
233879,392.749,-711.589,0,0
235180.95,350.499,-725.547,0,0
236482.575,315.083,-715.165,0,0
237784.2,292.945,-706.869,0,0
239085.825,266.691,-688.198,0,0
240387.45,261.601,-667.936,0,0
241689.075,256.656,-662.421,0,0
242990.7,241.605,-652.998,0,0
244292.325,232.596,-633.3,0,0
245593.95,235.805,-618.176,0,0
246895.575,237.761,-610.999,0,0
248197.2,236.112,-602.155,0,0
249498.825,236.901,-592.27,0,0
250800,240.776,-581.266,0,0
252102,249.888,-572.377,0,0
253404,263.932,-570.998,0,0
254705,273.252,-579.979,0,0
256007,273.273,-590.345,0,0
257309,267.458,-597.353,0,0
258610,260.523,-598.537,0,0
259912,254.943,-598.55,0,0
261213,248.416,-595.179,0,0
262515,246.294,-586.938,0,0
263817,253.163,-582.541,0,0
265118,257.245,-587.658,0,0
266420,255.959,-589.353,0,0
267721.55,258.628,-593.059,0,0
269023.175,256.139,-597.788,0,0
270324.8,255.373,-599.502,0,0
271626.425,261.484,-603.235,0,0
272928.05,268.357,-623.276,0,0
274229.675,253.608,-651.732,0,0
275531.3,220.536,-668.827,0,0
276832.925,183.049,-664.135,0,0
278134.55,155.123,-643.582,0,0
279436.175,141.767,-619.391,0,0
280737.8,138.365,-598.143,0,0
282039.425,137.936,-584.796,0,0
283341,133.8,-571.02,0,0
284643,134.364,-554.395,0,0
285944,140.025,-540.467,0,0
287246,147.157,-532.431,0,0
288548,150.722,-526.066,0,0
289849,153.911,-518.501,0,0
291151,158.931,-509.344,0,0
292452,166.5,-502.547,0,0
293754,174.608,-497.156,0,0
295056,183.183,-492.615,0,0
296357,193.737,-489.258,0,0
297659,206.357,-488.267,0,0
298960.525,219.832,-491.533,0,0
300262.15,233.052,-497.784,0,0
301563.775,247.308,-508.499,0,0
302865.4,261.213,-530.098,0,0
304167.025,258.685,-560.042,0,0
305468.65,244.392,-582.01,0,0
306770.275,225.039,-596.435,0,0
308071.9,204.101,-603.357,0,0
309373.525,183.823,-603.061,0,0
310675.15,168.007,-597.878,0,0
311976.775,156.246,-591.811,0,0
313278.4,145.961,-585.922,0,0
314580,136.545,-578.502,0,0
315882,130.1,-569.874,0,0
317183,126.225,-562.316,0,0
318485,123.269,-556.199,0,0
319787,120.843,-550.733,0,0
321088,118.699,-546.237,0,0
322390,116.499,-542.307,0,0
323691,114.225,-538.977,0,0
324993,111.451,-535.389,0,0
326295,109.565,-531.884,0,0
327596,107.433,-529.542,0,0
328898,104.396,-527.291,0,0
330200,101.025,-524.737,0,0
331501.125,97.461,-522.179,0,0
332802.75,93.2338,-519.53,0,0
334104.375,88.2856,-516.128,0,0
335406.0,83.4774,-511.495,0,0
336707.625,78.8961,-506.148,0,0
338009.25,75.1135,-499.994,0,0
339310.875,72.0825,-493.561,0,0
340612.5,69.6187,-486.875,0,0
341914.125,68.0124,-479.875,0,0
343215.75,67.3691,-472.982,0,0
344517.375,67.8755,-466.676,0,0
345819.0,68.6455,-461.47,0,0
347121,69.1176,-457.251,0,0
348422,68.5997,-453.164,0,0
349724,67.6951,-448.208,0,0
351025,67.345,-442.528,0,0
352327,67.9312,-436.37,0,0
353629,70.0547,-430.727,0,0
354930,72.7349,-426.473,0,0
356232,75.1333,-423.915,0,0
357534,75.6203,-422.038,0,0
358835,74.6862,-418.806,0,0
360137,74.4269,-413.833,0,0
361438,75.5478,-408.517,0,0
362740.1,77.7964,-403.559,0,0
364041.725,80.6779,-399.407,0,0
365343.35,84.0579,-396.137,0,0
366644.975,87.0731,-394.128,0,0
367946.6,89.4659,-392.375,0,0
369248.225,91.7384,-390.905,0,0
370549.85,93.5389,-390.527,0,0
371851.475,93.3355,-389.988,0,0
373153.1,92.4801,-387.521,0,0
374454.725,92.7821,-384.048,0,0
375756.35,93.9749,-380.691,0,0
377057.975,95.2471,-377.83,0,0
378359.6,96.3655,-374.419,0,0
379661,98.5961,-370.857,0,0
380963,101.144,-368.025,0,0
382264,103.641,-365.367,0,0
383566,106.483,-362.886,0,0
384868,109.473,-360.808,0,0
386169,112.122,-359.07,0,0
387471,114.674,-357.158,0,0
388773,117.221,-354.56,0,0
390074,121.482,-351.709,0,0
391376,126.368,-350.537,0,0
392677,130.831,-349.953,0,0
393979,134.99,-349.598,0,0
395280.7,139.677,-348.587,0,0
396582.325,146.219,-348.085,0,0
397883.95,154.415,-349.901,0,0
399185.575,162.664,-355.34,0,0
400006.6,166.787,-361.127,0,0