File: Accelerated corrosion test data/2025-10-13_06-00-03/sample_1.csv
Frequency (Hz),Impedance (ohms),Phase (Radians),Temperature (C),Humidity (%)
10000.0,243.564,-12204.4,0,0
11301.625,217.44,-10810.2,0,0
12603.25,197.383,-9710.64,0,0
13904.875,185.474,-8785.59,0,0
15206.5,188.99,-8055.15,0,0
16508.125,157.676,-7429.55,0,0
17809.75,148.626,-6894.09,0,0
19111.375,136.887,-6424.59,0,0
20413.0,160.811,-5982.56,0,0
21714.625,137.808,-5665.48,0,0
23016.25,124.072,-5362.98,0,0
24317.875,113.248,-5070.47,0,0
25619.5,105.971,-4806.57,0,0
26921.1,116.742,-4557.85,0,0
28222.7,112.582,-4353.55,0,0
29524.4,108.596,-4187.85,0,0
30826,102.501,-4000.55,0,0
32127.6,99.2521,-3842.25,0,0
33429.2,89.2091,-3698.84,0,0
34730.9,82.9746,-3557.39,0,0
36032.5,78.9997,-3426,0,0
37334.1,76.1565,-3303.7,0,0
38635.7,73.8148,-3190.03,0,0
39937.4,72.0443,-3083.01,0,0
41239,73.2032,-2984.83,0,0
42540.6,71.9407,-2892.58,0,0
43842.225,68.8247,-2804.99,0,0
45143.85,69.3535,-2723.71,0,0
46445.475,66.0879,-2646.98,0,0
47747.1,64.7324,-2573.44,0,0
49048.725,62.4582,-2503.53,0,0
50350.35,60.5637,-2437,0,0
51651.975,59.4303,-2373.29,0,0
52953.6,58.3542,-2312.48,0,0
54255.225,57.3221,-2255.49,0,0
55556.85,56.515,-2199.95,0,0
56858.475,55.5548,-2146.89,0,0
58160.1,55.1675,-2096.34,0,0
59461.7,55.0341,-2048.34,0,0
60763.3,55.1738,-2002.35,0,0
62065,53.7803,-1958.37,0,0
63366.6,53.0417,-1914.9,0,0
64668.2,53.5865,-1872.67,0,0
65969.8,55.7774,-1834.97,0,0
67271.5,54.4596,-1797.87,0,0
68573.1,53.5183,-1762.78,0,0
69874.7,52.8549,-1728.66,0,0
71176.3,50.9749,-1694.24,0,0
72478,49.1298,-1660.54,0,0
73779.6,48.6227,-1626.95,0,0
75081.2,49.1332,-1594.9,0,0
76382.825,50.0105,-1563.87,0,0
77684.45,50.708,-1534.38,0,0
78986.075,52.4516,-1506.73,0,0
80287.7,51.5898,-1480.42,0,0
81589.325,51.1565,-1452.6,0,0
82890.95,51.6149,-1425.75,0,0
84192.575,53.1488,-1399.43,0,0
85494.2,55.3563,-1375.02,0,0
86795.825,56.1435,-1351.57,0,0
88097.45,56.6898,-1328.11,0,0
89399.075,58.4425,-1303.66,0,0
90700.7,61.8555,-1280.41,0,0
92002.3,67.8171,-1258.94,0,0
93303.9,75.5322,-1241.92,0,0
94605.6,74.838,-1234.7,0,0
95907.2,67.2374,-1216.5,0,0
97208.8,65.2049,-1195.98,0,0
98510.4,64.9697,-1175.78,0,0
99812.1,64.0649,-1155.8,0,0
101114,63.9547,-1135.97,0,0
102415,63.697,-1114.08,0,0
103717,68.2568,-1093.03,0,0
105019,75.044,-1075.58,0,0
106320.175,81.579,-1059.21,0,0
107621.8,87.5806,-1046.91,0,0
108923.425,92.1314,-1035.37,0,0
110225.05,94.1404,-1027.07,0,0
111526.675,94.7225,-1014.61,0,0
112828.3,97.0465,-1004.54,0,0
114129.925,96.7395,-997.017,0,0
115431.55,93.2612,-988.102,0,0
116733.175,88.2433,-976.447,0,0
118034.8,83.7617,-961.922,0,0
119336.425,81.8978,-946.448,0,0
120638.05,82.0711,-932.005,0,0
121939.675,80.9185,-919.418,0,0
123241,79.2505,-904.84,0,0
124543,79.2121,-889.619,0,0
125845,80.1031,-874.934,0,0
127146,81.3224,-860.553,0,0
128448,83.2579,-846.285,0,0
129749,85.665,-831.83,0,0
131051,90.5273,-818.59,0,0
132353,94.6915,-807.939,0,0
133654,97.7725,-797.174,0,0
134956,100.745,-786.834,0,0
136258,103.534,-776.036,0,0
137559,108.576,-766.207,0,0
138860.775,111.352,-759.903,0,0
140162.4,110.723,-752.373,0,0
141464.025,110.239,-741.99,0,0
142765.65,110.989,-730.927,0,0
144067.275,112.374,-719.854,0,0
145368.9,114.268,-708.241,0,0
146670.525,117.779,-697.664,0,0
147972.15,120.341,-689.299,0,0
149273.775,122.553,-678.543,0,0
150575.4,124.404,-670.833,0,0
151877.025,123.236,-659.964,0,0
153178.65,122.717,-645.265,0,0
154480,126.091,-628.79,0,0
155782,133.385,-611.68,0,0
157084,144.917,-596.735,0,0
158385,158.042,-587.055,0,0
159687,167.994,-576.33,0,0
160988,185.739,-566.074,0,0
162290,204.258,-565.813,0,0
163592,215.878,-567.858,0,0
164893,226.757,-569.208,0,0
166195,240.242,-574.58,0,0
167497,247.463,-585.329,0,0
168798,247.18,-597.71,0,0
170100,238.073,-604.611,0,0
171401.375,229.745,-602.859,0,0
172703.0,225.797,-598.33,0,0
174004.625,221.84,-593.993,0,0
175306.25,220.765,-588.535,0,0
176607.875,220.765,-585.625,0,0
177909.5,218.853,-582.55,0,0
179211.125,215.174,-580.35,0,0
180512.75,209.35,-576.771,0,0
181814.375,202.42,-570.511,0,0
183116.0,194.572,-561.031,0,0
184417.625,187.855,-546.724,0,0
185719.25,186.149,-529.77,0,0
187021,187.746,-514.086,0,0
188322,190.93,-499.106,0,0
189624,194.696,-484.265,0,0
190926,199.577,-468.871,0,0
192227,205.462,-452.403,0,0
193529,214.272,-436.155,0,0
194831,224.193,-419.356,0,0
196132,237.358,-402.119,0,0
197434,253.209,-384.957,0,0
198735,272.51,-369.14,0,0
200037,293.276,-354.25,0,0
201339,318.351,-338.426,0,0
202640.35,352.321,-322.63,0,0
203941.975,393.937,-314.643,0,0
205243.6,445.959,-320.743,0,0
206545.225,491.161,-345.887,0,0
207846.85,523.95,-384.875,0,0
209148.475,539.762,-425.485,0,0
210450.1,539.599,-463.4,0,0
211751.725,529.627,-484.975,0,0
213053.35,524.656,-490.413,0,0
214354.975,535.954,-496.695,0,0
215656.6,549.333,-511.826,0,0
216958.225,557.192,-529.686,0,0
218259.85,566.871,-546.022,0,0
219561,579.082,-561.619,0,0
220863,597.333,-585.473,0,0
222165,615.01,-621.254,0,0
223466,618.569,-668.038,0,0
224768,610.048,-714.922,0,0
226070,591.01,-758.272,0,0
227371,563.589,-800.288,0,0
228673,522.549,-834.152,0,0
229974,475.985,-852.487,0,0
231276,432.804,-856.698,0,0
232578,397.484,-853.021,0,0
233879,369.427,-847.69,0,0
235180.95,345.319,-843.006,0,0
236482.575,321.459,-838.074,0,0
237784.2,299.046,-831.761,0,0
239085.825,277.718,-823.752,0,0
240387.45,257.909,-813.635,0,0
241689.075,240.829,-802.504,0,0
242990.7,225.853,-790.558,0,0
244292.325,213.55,-779.145,0,0
245593.95,201.406,-768.74,0,0
246895.575,189.41,-757.233,0,0
248197.2,179.317,-744.729,0,0
249498.825,170.961,-732.258,0,0
250800,163.623,-720.224,0,0
252102,157.309,-708.231,0,0
253404,151.528,-696.152,0,0
254705,147.045,-683.134,0,0
256007,144.859,-670.905,0,0
257309,143.342,-659.388,0,0
258610,142.412,-647.706,0,0
259912,144.066,-635.645,0,0
261213,148.257,-625.638,0,0
262515,153.328,-618.294,0,0
263817,158.465,-612.998,0,0
265118,164.08,-609.227,0,0
266420,170.786,-608.891,0,0
267721.55,174.887,-614.302,0,0
269023.175,171.421,-621.982,0,0
270324.8,161.447,-624.62,0,0
271626.425,151.051,-620.614,0,0
272928.05,143.799,-612.566,0,0
274229.675,140.467,-603.412,0,0
275531.3,139.62,-595.7,0,0
276832.925,139.807,-588.447,0,0
278134.55,141.855,-582.767,0,0
279436.175,144.124,-579.386,0,0
280737.8,145.168,-577.917,0,0
282039.425,144.167,-577.291,0,0
283341,141.389,-575.275,0,0
284643,138.379,-572.001,0,0
285944,135.848,-567.869,0,0
287246,132.632,-563.046,0,0
288548,130.518,-555.33,0,0
289849,133.071,-547.809,0,0
291151,135.795,-544.422,0,0
292452,137.26,-542.069,0,0
293754,136.226,-539.492,0,0
295056,135.169,-533.995,0,0
296357,136.894,-526.971,0,0
297659,141.195,-521.749,0,0
298960.525,145.995,-517.907,0,0
300262.15,151.47,-515.259,0,0
301563.775,157.404,-513.898,0,0
302865.4,164.139,-514.926,0,0
304167.025,169.182,-518.088,0,0
305468.65,173.242,-522.252,0,0
306770.275,176.243,-527.45,0,0
308071.9,177.145,-534.254,0,0
309373.525,175.815,-540.244,0,0
310675.15,174.04,-546.079,0,0
311976.775,170.58,-552.408,0,0
313278.4,164.372,-558.511,0,0
314580,156.255,-561.703,0,0
315882,148.737,-562.864,0,0
317183,141.481,-563.308,0,0
318485,133.902,-562.835,0,0
319787,126.419,-561.062,0,0
321088,118.977,-557.971,0,0
322390,112.591,-553.61,0,0
323691,107.331,-547.989,0,0
324993,104.25,-542.331,0,0
326295,102.352,-537.658,0,0
327596,101.076,-533.81,0,0
328898,99.9637,-531.291,0,0
330200,98.0931,-529.462,0,0
331501.125,95.6445,-527.754,0,0
332802.75,92.5003,-526.021,0,0
334104.375,89.0636,-523.857,0,0
335406.0,85.1913,-521.068,0,0
336707.625,81.6935,-517.684,0,0
338009.25,78.3569,-514.057,0,0
339310.875,75.2857,-510.048,0,0
340612.5,72.625,-505.944,0,0
341914.125,70.3781,-501.662,0,0
343215.75,68.2933,-497.668,0,0
344517.375,66.2169,-493.726,0,0
345819.0,64.0949,-489.595,0,0
347121,62.148,-485.116,0,0
348422,60.5567,-480.402,0,0
349724,59.5158,-475.769,0,0
351025,58.7611,-471.255,0,0
352327,58.4147,-467.021,0,0
353629,57.9271,-463.032,0,0
354930,57.4316,-458.999,0,0
356232,57.1649,-454.972,0,0
357534,57.0971,-451.051,0,0
358835,57.0822,-447.114,0,0
360137,57.2009,-443.342,0,0
361438,57.5403,-439.752,0,0
362740.1,57.7487,-436.171,0,0
364041.725,58.1135,-432.564,0,0
365343.35,58.6708,-429.043,0,0
366644.975,59.1386,-425.693,0,0
367946.6,59.4044,-422.135,0,0
369248.225,60.0227,-417.816,0,0
370549.85,61.783,-413.27,0,0
371851.475,64.6502,-409.314,0,0
373153.1,68.2173,-406.642,0,0
374454.725,71.6567,-405.27,0,0
375756.35,74.214,-404.778,0,0
377057.975,76.137,-404.201,0,0
378359.6,78.1781,-403.838,0,0
379661,79.7712,-403.924,0,0
380963,81.4301,-403.902,0,0
382264,83.3019,-405.207,0,0
383566,83.478,-407.521,0,0
384868,82.246,-409.494,0,0
386169,79.7997,-410.818,0,0
387471,76.5508,-410.667,0,0
388773,73.8257,-409.213,0,0
390074,71.8348,-407.216,0,0
391376,70.4751,-405.516,0,0
392677,68.9967,-404.248,0,0
393979,66.7531,-402.998,0,0
395280.7,64.1615,-400.743,0,0
396582.325,61.9062,-397.674,0,0
397883.95,60.2628,-394.255,0,0
399185.575,59.2105,-390.727,0,0
400006.6,58.6845,-388.548,0,0