File: Accelerated corrosion test data/2025-09-30_06-00-03/sample_3.csv
Frequency (Hz),Impedance (ohms),Phase (Radians),Temperature (C),Humidity (%)
10000.0,254.989,-11742.3,0,0
11301.625,227.581,-10401.5,0,0
12603.25,206.428,-9335.24,0,0
13904.875,188.56,-8466.24,0,0
15206.5,175.392,-7740.62,0,0
16508.125,165.008,-7147.64,0,0
17809.75,159.844,-6620.57,0,0
19111.375,147.875,-6170.33,0,0
20413.0,158.556,-5770.46,0,0
21714.625,140.404,-5452.77,0,0
23016.25,129.724,-5147.96,0,0
24317.875,120.495,-4870.23,0,0
25619.5,115.717,-4623.96,0,0
26921.1,109.721,-4394.57,0,0
28222.7,104.775,-4188.98,0,0
29524.4,111.075,-4010.69,0,0
30826,101.884,-3840.2,0,0
32127.6,102.79,-3677.52,0,0
33429.2,101.367,-3551.97,0,0
34730.9,89.1185,-3415.32,0,0
36032.5,84.6062,-3288.18,0,0
37334.1,81.7793,-3170.82,0,0
38635.7,79.2824,-3061.31,0,0
39937.4,77.0064,-2959.3,0,0
41239,75.7401,-2862.96,0,0
42540.6,74.7773,-2773.43,0,0
43842.225,73.1333,-2688.12,0,0
45143.85,71.8481,-2608.99,0,0
46445.475,71.1002,-2533.27,0,0
47747.1,71.2235,-2460.97,0,0
49048.725,69.6154,-2395.92,0,0
50350.35,67.8233,-2330.93,0,0
51651.975,67.5123,-2268.64,0,0
52953.6,67.7453,-2209.06,0,0
54255.225,70.3684,-2154.63,0,0
55556.85,67.9832,-2107.46,0,0
56858.475,62.6923,-2054.74,0,0
58160.1,62.1166,-2002.76,0,0
59461.7,62.7466,-1953.81,0,0
60763.3,64.18,-1907.1,0,0
62065,66.3032,-1862.86,0,0
63366.6,69.8007,-1819.54,0,0
64668.2,78.2742,-1778.33,0,0
65969.8,93.0009,-1752.09,0,0
67271.5,77.6353,-1727.54,0,0
68573.1,76.9869,-1690.51,0,0
69874.7,76.4352,-1661.21,0,0
71176.3,71.1702,-1630.47,0,0
72478,69.4683,-1597.99,0,0
73779.6,67.8781,-1569.6,0,0
75081.2,64.4353,-1541.25,0,0
76382.825,61.0034,-1511.97,0,0
77684.45,58.6456,-1483.11,0,0
78986.075,56.5348,-1454.74,0,0
80287.7,55.0274,-1426.8,0,0
81589.325,54.0702,-1399.65,0,0
82890.95,53.4906,-1373.32,0,0
84192.575,53.2249,-1347.71,0,0
85494.2,53.1267,-1322.71,0,0
86795.825,53.3694,-1298.44,0,0
88097.45,53.8715,-1274.52,0,0
89399.075,55.195,-1250.76,0,0
90700.7,57.4492,-1228.61,0,0
92002.3,60.3439,-1207.54,0,0
93303.9,64.0494,-1189.01,0,0
94605.6,65.8686,-1174.76,0,0
95907.2,60.177,-1157.84,0,0
97208.8,59.2681,-1136.83,0,0
98510.4,59.4995,-1118.14,0,0
99812.1,58.6311,-1100,0,0
101114,57.5359,-1080.64,0,0
102415,58.5164,-1060.02,0,0
103717,62.6251,-1042.23,0,0
105019,66.6316,-1028.78,0,0
106320.175,64.7555,-1016.47,0,0
107621.8,61.232,-1000.46,0,0
108923.425,59.0462,-982.329,0,0
110225.05,59.0534,-963.292,0,0
111526.675,61.4852,-945.136,0,0
112828.3,63.7087,-929.016,0,0
114129.925,65.2662,-912.779,0,0
115431.55,67.8379,-896.285,0,0
116733.175,71.6068,-879.924,0,0
118034.8,77.1985,-864.555,0,0
119336.425,84.1743,-853.037,0,0
120638.05,88.6286,-846.899,0,0
121939.675,86.7579,-837.622,0,0
123241,87.0656,-824.909,0,0
124543,88.2396,-813.729,0,0
125845,88.9702,-803.624,0,0
127146,87.9859,-793.607,0,0
128448,85.9375,-782.313,0,0
129749,84.3725,-768.888,0,0
131051,85.2273,-755.381,0,0
132353,84.9904,-744.065,0,0
133654,84.3559,-731.802,0,0
134956,83.1878,-718.932,0,0
136258,82.0579,-705.165,0,0
137559,82.2958,-690.093,0,0
138860.775,83.6817,-676.616,0,0
140162.4,83.0609,-663.304,0,0
141464.025,83.0541,-648.571,0,0
142765.65,82.729,-632.917,0,0
144067.275,83.2287,-615.848,0,0
145368.9,84.8989,-598.065,0,0
146670.525,87.5025,-579.264,0,0
147972.15,91.9671,-559.346,0,0
149273.775,98.7937,-539.002,0,0
150575.4,108.865,-518.592,0,0
151877.025,122.155,-501.486,0,0
153178.65,135.049,-487.345,0,0
154480,146.099,-475.033,0,0
155782,154.286,-459.848,0,0
157084,166.518,-442.971,0,0
158385,181.7,-429.552,0,0
159687,191.011,-414.639,0,0
160988,203.446,-388.028,0,0
162290,233.08,-361.304,0,0
163592,272.901,-345.414,0,0
164893,318.309,-337.112,0,0
166195,370.729,-353.069,0,0
167497,405.597,-385.234,0,0
168798,425.095,-422.382,0,0
170100,429.498,-459.377,0,0
171401.375,412.823,-479.357,0,0
172703.0,407.656,-484.066,0,0
174004.625,410.695,-489.498,0,0
175306.25,418.821,-507.677,0,0
176607.875,406.968,-530.785,0,0
177909.5,389.782,-542.505,0,0
179211.125,365.104,-538.024,0,0
180512.75,356.54,-523.167,0,0
181814.375,361.415,-517.987,0,0
183116.0,354.871,-525.39,0,0
184417.625,340.383,-520.773,0,0
185719.25,327.717,-505.669,0,0
187021,323.026,-484.777,0,0
188322,329.149,-465.718,0,0
189624,336.409,-452.64,0,0
190926,344.745,-437.433,0,0
192227,354.92,-424.117,0,0
193529,366.601,-408.404,0,0
194831,388.193,-389.614,0,0
196132,422.369,-386.722,0,0
197434,445.544,-399.158,0,0
198735,454.133,-410.804,0,0
200037,460.531,-408.579,0,0
201339,469.735,-407.306,0,0
202640.35,482.628,-399.162,0,0
203941.975,508.134,-392.38,0,0
205243.6,539.721,-397.323,0,0
206545.225,562.218,-415.836,0,0
207846.85,576.301,-425.287,0,0
209148.475,600.57,-429.174,0,0
210450.1,633.98,-444.762,0,0
211751.725,663.454,-472.971,0,0
213053.35,686.412,-505.865,0,0
214354.975,707.163,-546.455,0,0
215656.6,716.343,-593.699,0,0
216958.225,718.577,-640.929,0,0
218259.85,707.529,-689.883,0,0
219561,685.379,-732.728,0,0
220863,665.769,-766.671,0,0
222165,635.816,-807.776,0,0
223466,590.869,-834.087,0,0
224768,549.201,-840.451,0,0
226070,522.104,-838.632,0,0
227371,504.46,-846.768,0,0
228673,479.667,-858.073,0,0
229974,450.01,-866.827,0,0
231276,418.495,-868.688,0,0
232578,390.249,-864.563,0,0
233879,365.52,-859.275,0,0
235180.95,341.987,-853.965,0,0
236482.575,317.721,-847.183,0,0
237784.2,293.953,-836.63,0,0
239085.825,271.582,-822.383,0,0
240387.45,253.391,-804.031,0,0
241689.075,241.042,-785.248,0,0
242990.7,232.549,-766.899,0,0
244292.325,227.807,-751.183,0,0
245593.95,223.856,-739.296,0,0
246895.575,219.323,-727.227,0,0
248197.2,215.576,-715.481,0,0
249498.825,214.538,-704.29,0,0
250800,213.878,-696.548,0,0
252102,209.874,-690.951,0,0
253404,202.802,-681.83,0,0
254705,197.804,-667.199,0,0
256007,198.062,-651.061,0,0
257309,205.616,-635.703,0,0
258610,216.923,-627.908,0,0
259912,226.92,-622.305,0,0
261213,241.265,-622.789,0,0
262515,251.85,-633.058,0,0
263817,252.477,-647.635,0,0
265118,243.973,-659.675,0,0
266420,228.962,-665.069,0,0
267721.55,214.332,-661.613,0,0
269023.175,204.035,-652.8,0,0
270324.8,198.827,-643.234,0,0
271626.425,196.533,-634.088,0,0
272928.05,196.623,-626.739,0,0
274229.675,196.863,-620.49,0,0
275531.3,199.172,-613.518,0,0
276832.925,204.903,-608.246,0,0
278134.55,213.44,-609.377,0,0
279436.175,217.322,-616.847,0,0
280737.8,213.665,-625.677,0,0
282039.425,205.937,-629.051,0,0
283341,198.288,-630.328,0,0
284643,189.781,-628.661,0,0
285944,182.298,-624.74,0,0
287246,176.199,-618.305,0,0
288548,174.341,-610.481,0,0
289849,175.927,-606.142,0,0
291151,175.531,-604.896,0,0
292452,173.768,-603.183,0,0
293754,171.914,-600.095,0,0
295056,172.953,-597.167,0,0
296357,174.836,-597.845,0,0
297659,174.06,-601.144,0,0
298960.525,169.891,-604.764,0,0
300262.15,163.447,-606.175,0,0
301563.775,156.545,-605.837,0,0
302865.4,149.374,-603.803,0,0
304167.025,142.837,-600.197,0,0
305468.65,137.281,-595.351,0,0
306770.275,133.021,-590.131,0,0
308071.9,130.414,-584.807,0,0
309373.525,128.616,-581.172,0,0
310675.15,125.741,-578.444,0,0
311976.775,121.925,-575.019,0,0
313278.4,117.897,-570.644,0,0
314580,114.6,-564.56,0,0
315882,113.46,-558.013,0,0
317183,114.398,-552.794,0,0
318485,115.547,-549.682,0,0
319787,115.59,-547.537,0,0
321088,115.307,-545.245,0,0
322390,115.595,-543.181,0,0
323691,115.605,-542.895,0,0
324993,114.025,-543.349,0,0
326295,110.881,-543.573,0,0
327596,106.664,-542.62,0,0
328898,102.509,-540.401,0,0
330200,98.7745,-537.954,0,0
331501.125,94.5374,-535.263,0,0
332802.75,90.0399,-531.762,0,0
334104.375,85.6902,-527.249,0,0
335406.0,81.8178,-521.678,0,0
336707.625,79.1295,-515.385,0,0
338009.25,77.5038,-509.246,0,0
339310.875,76.4456,-502.82,0,0
340612.5,76.822,-496.305,0,0
341914.125,78.7922,-490.922,0,0
343215.75,81.2001,-487.406,0,0
344517.375,82.7018,-485.475,0,0
345819.0,82.7787,-483.813,0,0
347121,82.1234,-481.718,0,0
348422,81.164,-478.727,0,0
349724,81.1362,-475.23,0,0
351025,81.9717,-472.177,0,0
352327,83.0087,-470.442,0,0
353629,83.0642,-469.863,0,0
354930,81.2479,-468.934,0,0
356232,79.2065,-466.472,0,0
357534,77.6444,-463.305,0,0
358835,76.6297,-459.976,0,0
360137,75.8625,-456.378,0,0
361438,75.724,-452.76,0,0
362740.1,76.1967,-449.372,0,0
364041.725,77.1535,-446.555,0,0
365343.35,78.4671,-444.549,0,0
366644.975,79.1725,-444.208,0,0
367946.6,77.2705,-444.122,0,0
369248.225,74.2096,-441.191,0,0
370549.85,73.6792,-436.127,0,0
371851.475,75.5998,-433.076,0,0
373153.1,76.2762,-432.47,0,0
374454.725,74.8874,-431.275,0,0
375756.35,73.3979,-428.671,0,0
377057.975,72.5389,-425.186,0,0
378359.6,72.8227,-421.643,0,0
379661,73.8053,-418.882,0,0
380963,74.6858,-416.879,0,0
382264,75.3851,-415.226,0,0
383566,75.6762,-414.479,0,0
384868,74.6006,-413.501,0,0
386169,73.1408,-411.505,0,0
387471,71.8746,-408.646,0,0
388773,71.1425,-405.347,0,0
390074,71.0155,-401.731,0,0
391376,71.7387,-397.93,0,0
392677,73.3092,-394.648,0,0
393979,75.5117,-392.138,0,0
395280.7,77.9217,-390.732,0,0
396582.325,79.9499,-390.471,0,0
397883.95,80.9499,-390.992,0,0
399185.575,80.8015,-391.675,0,0
400006.6,80.0238,-391.899,0,0