File: Accelerated corrosion test data/2025-09-30_06-00-03/sample_2.csv
Frequency (Hz),Impedance (ohms),Phase (Radians),Temperature (C),Humidity (%)
10000.0,227.067,-11378.4,0,0
11301.625,201.981,-10077,0,0
12603.25,181.89,-9047.02,0,0
13904.875,183.563,-8210.62,0,0
15206.5,161.779,-7518.21,0,0
16508.125,142.612,-6926.12,0,0
17809.75,132.461,-6420.49,0,0
19111.375,128.533,-5983.48,0,0
20413.0,117.695,-5601.87,0,0
21714.625,127.13,-5272.46,0,0
23016.25,111.349,-4979.23,0,0
24317.875,102.698,-4714.37,0,0
25619.5,96.7503,-4471.61,0,0
26921.1,94.3952,-4254.37,0,0
28222.7,89.9429,-4056.4,0,0
29524.4,93.8419,-3873.66,0,0
30826,88.4316,-3719.42,0,0
32127.6,81.6558,-3566.47,0,0
33429.2,79.7957,-3428.31,0,0
34730.9,75.539,-3298.55,0,0
36032.5,73.0192,-3177.67,0,0
37334.1,70.8368,-3064.76,0,0
38635.7,68.9105,-2960.1,0,0
39937.4,67.1346,-2862,0,0
41239,65.6428,-2769.36,0,0
42540.6,64.2837,-2683.05,0,0
43842.225,63.1514,-2601.41,0,0
45143.85,61.9962,-2524.23,0,0
46445.475,61.1649,-2452.11,0,0
47747.1,60.8297,-2383.13,0,0
49048.725,60.5885,-2319.39,0,0
50350.35,57.9884,-2257.39,0,0
51651.975,56.8712,-2198.82,0,0
52953.6,55.1941,-2141.78,0,0
54255.225,54.2763,-2087.27,0,0
55556.85,54.0834,-2035.56,0,0
56858.475,53.9171,-1985.93,0,0
58160.1,54.2286,-1938.9,0,0
59461.7,54.6931,-1893.17,0,0
60763.3,56.145,-1850.62,0,0
62065,59.0489,-1812.77,0,0
63366.6,56.3898,-1776.08,0,0
64668.2,53.1141,-1738.3,0,0
65969.8,50.8499,-1699.48,0,0
67271.5,51.5051,-1661.98,0,0
68573.1,53.7261,-1628.12,0,0
69874.7,56.0095,-1597.92,0,0
71176.3,53.1688,-1569.76,0,0
72478,47.8523,-1539.58,0,0
73779.6,45.366,-1506.82,0,0
75081.2,45.3544,-1474.87,0,0
76382.825,47.0497,-1444.64,0,0
77684.45,49.7117,-1416.43,0,0
78986.075,53.1295,-1392.07,0,0
80287.7,52.0317,-1370.79,0,0
81589.325,49.4075,-1345.94,0,0
82890.95,48.1563,-1320.44,0,0
84192.575,48.9423,-1295.6,0,0
85494.2,49.6613,-1272.3,0,0
86795.825,50.3929,-1250.21,0,0
88097.45,50.9914,-1229.13,0,0
89399.075,50.9955,-1207.61,0,0
90700.7,51.6945,-1187.33,0,0
92002.3,52.9802,-1166.28,0,0
93303.9,55.9212,-1147.84,0,0
94605.6,55.375,-1131.59,0,0
95907.2,54.8069,-1111.67,0,0
97208.8,57.5885,-1095.06,0,0
98510.4,57.9201,-1081.09,0,0
99812.1,53.4533,-1067.08,0,0
101114,50.1326,-1048.94,0,0
102415,47.5336,-1028.97,0,0
103717,46.3171,-1008.18,0,0
105019,49.5068,-987.999,0,0
106320.175,54.4893,-971.007,0,0
107621.8,57.65,-958.975,0,0
108923.425,56.2377,-947.192,0,0
110225.05,52.9093,-931.973,0,0
111526.675,51.8761,-914.423,0,0
112828.3,52.0775,-897.126,0,0
114129.925,53.7835,-879.849,0,0
115431.55,56.1926,-863.655,0,0
116733.175,59.316,-848.029,0,0
118034.8,63.0684,-833.799,0,0
119336.425,67.0469,-821.138,0,0
120638.05,69.8565,-811.105,0,0
121939.675,69.1529,-799.662,0,0
123241,68.9028,-786.706,0,0
124543,68.725,-773.479,0,0
125845,68.65,-759.107,0,0
127146,69.8527,-743.853,0,0
128448,72.8942,-729.189,0,0
129749,76.2212,-716.025,0,0
131051,79.1894,-703.926,0,0
132353,80.993,-692.172,0,0
133654,81.8466,-679.316,0,0
134956,83.081,-665.53,0,0
136258,84.7623,-651.279,0,0
137559,87.3325,-636.446,0,0
138860.775,89.7646,-621.431,0,0
140162.4,92.6366,-604.889,0,0
141464.025,97.7452,-586.599,0,0
142765.65,106.54,-568.924,0,0
144067.275,116.093,-553.286,0,0
145368.9,127.201,-537.539,0,0
146670.525,139.163,-522.958,0,0
147972.15,154.098,-507.579,0,0
149273.775,174.126,-492.915,0,0
150575.4,201.776,-487.576,0,0
151877.025,226.258,-495.809,0,0
153178.65,238.033,-510.823,0,0
154480,238.589,-522.245,0,0
155782,236.248,-526.833,0,0
157084,232.254,-528.339,0,0
158385,228.701,-525.685,0,0
159687,224.962,-519.306,0,0
160988,226.858,-511.364,0,0
162290,235.427,-507.646,0,0
163592,233.778,-517.301,0,0
164893,219.149,-516.849,0,0
166195,203.087,-504.082,0,0
167497,195.713,-484.772,0,0
168798,191.511,-462.983,0,0
170100,194.177,-440.605,0,0
171401.375,197.282,-418.911,0,0
172703.0,205.066,-395.101,0,0
174004.625,217.481,-371.072,0,0
175306.25,235.688,-347.321,0,0
176607.875,258.561,-329.495,0,0
177909.5,287.027,-319.189,0,0
179211.125,307.02,-315.759,0,0
180512.75,319.791,-317.064,0,0
181814.375,323.553,-303.107,0,0
183116.0,338.404,-280.374,0,0
184417.625,361.435,-256.992,0,0
185719.25,396.888,-234.969,0,0
187021,437.847,-226.656,0,0
188322,478.072,-219.968,0,0
189624,517.919,-216.226,0,0
190926,563.043,-211.436,0,0
192227,622.811,-213.952,0,0
193529,691.702,-232.669,0,0
194831,755.148,-276.223,0,0
196132,807.604,-332.616,0,0
197434,849.103,-398.935,0,0
198735,876.2,-473.738,0,0
200037,886.356,-557.849,0,0
201339,879.232,-642.829,0,0
202640.35,844.022,-725.583,0,0
203941.975,789.735,-782.306,0,0
205243.6,740.296,-819.943,0,0
206545.225,686.986,-849.518,0,0
207846.85,638.565,-864.055,0,0
209148.475,599.865,-872.165,0,0
210450.1,560.395,-885.643,0,0
211751.725,513.509,-890.222,0,0
213053.35,473.328,-880.111,0,0
214354.975,441.889,-866.484,0,0
215656.6,417.113,-852.468,0,0
216958.225,396.612,-837.326,0,0
218259.85,381.818,-822.058,0,0
219561,371.61,-808.514,0,0
220863,363.882,-798.163,0,0
222165,358.357,-787.674,0,0
223466,357.343,-781.573,0,0
224768,354.38,-780.258,0,0
226070,350.177,-778.694,0,0
227371,348.007,-779.591,0,0
228673,344.742,-783.861,0,0
229974,338.088,-792.203,0,0
231276,325.477,-800.393,0,0
232578,309.146,-804.736,0,0
233879,292.147,-806.001,0,0
235180.95,275.595,-805.063,0,0
236482.575,258.131,-802.031,0,0
237784.2,241.306,-796.589,0,0
239085.825,225.856,-788.613,0,0
240387.45,211.982,-779.281,0,0
241689.075,200.284,-768.615,0,0
242990.7,191.206,-758.269,0,0
244292.325,184.109,-749.838,0,0
245593.95,175.783,-743.657,0,0
246895.575,164.634,-738.053,0,0
248197.2,151.038,-728.107,0,0
249498.825,139.173,-714.609,0,0
250800,130.302,-698.718,0,0
252102,124.689,-682.166,0,0
253404,121.828,-665.902,0,0
254705,120.922,-650.344,0,0
256007,122.194,-634.978,0,0
257309,125.783,-620.725,0,0
258610,131.69,-608.378,0,0
259912,138.449,-597.948,0,0
261213,146.806,-589.576,0,0
262515,155.768,-584.172,0,0
263817,164.248,-581.326,0,0
265118,171.526,-581.912,0,0
266420,175.046,-583.316,0,0
267721.55,177.8,-583.668,0,0
269023.175,178.622,-585,0,0
270324.8,176.993,-582.619,0,0
271626.425,179.403,-577.039,0,0
272928.05,185.661,-572.879,0,0
274229.675,196.188,-570.856,0,0
275531.3,209.948,-578.177,0,0
276832.925,216.362,-595.163,0,0
278134.55,210.797,-612.108,0,0
279436.175,199.94,-622.686,0,0
280737.8,188.203,-629.269,0,0
282039.425,174.803,-633.376,0,0
283341,159.164,-633.212,0,0
284643,147.235,-627.02,0,0
285944,135.697,-622.813,0,0
287246,122.731,-613.107,0,0
288548,113.843,-596.612,0,0
289849,115.336,-577.069,0,0
291151,128.016,-564.26,0,0
292452,141.375,-564.066,0,0
293754,148.069,-571.717,0,0
295056,144.863,-576.245,0,0
296357,148.081,-576.582,0,0
297659,147.675,-587.243,0,0
298960.525,137.727,-592.961,0,0
300262.15,128.6,-593.367,0,0
301563.775,120.328,-591.056,0,0
302865.4,115.466,-587.424,0,0
304167.025,111.452,-587.093,0,0
305468.65,104.363,-587.231,0,0
306770.275,95.4555,-584.646,0,0
308071.9,87.5954,-579.384,0,0
309373.525,81.308,-573.379,0,0
310675.15,75.9473,-566.981,0,0
311976.775,71.5697,-560.108,0,0
313278.4,68.4223,-553.437,0,0
314580,65.6901,-547.254,0,0
315882,63.1369,-541.045,0,0
317183,61.0705,-534.667,0,0
318485,59.9352,-528.459,0,0
319787,58.9724,-522.884,0,0
321088,57.9477,-517.555,0,0
322390,57.0701,-512.103,0,0
323691,56.1383,-506.436,0,0
324993,56.0593,-499.812,0,0
326295,58.1911,-493.456,0,0
327596,61.3809,-489.535,0,0
328898,63.4057,-487.153,0,0
330200,65.0578,-485.369,0,0
331501.125,65.8141,-484.479,0,0
332802.75,65.2269,-484.031,0,0
334104.375,63.1262,-482.807,0,0
335406.0,60.7781,-480.285,0,0
336707.625,58.7191,-476.992,0,0
338009.25,56.8305,-473.12,0,0
339310.875,55.7158,-468.955,0,0
340612.5,54.8955,-464.811,0,0
341914.125,54.3469,-460.572,0,0
343215.75,54.2153,-456.141,0,0
344517.375,54.5034,-451.824,0,0
345819.0,55.296,-447.691,0,0
347121,56.4686,-443.842,0,0
348422,57.8722,-440.377,0,0
349724,59.594,-437.248,0,0
351025,61.4828,-434.84,0,0
352327,62.8164,-433.046,0,0
353629,63.8739,-431.027,0,0
354930,65.0388,-429.051,0,0
356232,66.2968,-427.312,0,0
357534,67.5728,-425.631,0,0
358835,69.2731,-424.36,0,0
360137,70.8863,-424.057,0,0
361438,71.5719,-424.45,0,0
362740.1,71.3451,-424.675,0,0
364041.725,70.6741,-424.606,0,0
365343.35,69.527,-424.05,0,0
366644.975,68.3901,-423.013,0,0
367946.6,67.6873,-421.527,0,0
369248.225,67.5407,-420.467,0,0
370549.85,66.8926,-420.078,0,0
371851.475,65.5786,-419.204,0,0
373153.1,64.5011,-418.203,0,0
374454.725,63.1598,-417.346,0,0
375756.35,61.4993,-416.234,0,0
377057.975,59.8587,-414.641,0,0
378359.6,58.5866,-413.565,0,0
379661,55.6851,-412.336,0,0
380963,53.2216,-408.745,0,0
382264,53.0337,-405.951,0,0
383566,51.9213,-404.476,0,0
384868,49.9778,-402.409,0,0
386169,48.2236,-399.638,0,0
387471,46.6323,-396.594,0,0
388773,45.4748,-393.056,0,0
390074,45.0447,-389.41,0,0
391376,45.4704,-386.65,0,0
392677,45.0132,-384.964,0,0
393979,43.3534,-382.715,0,0
395280.7,41.7848,-379.184,0,0
396582.325,41.0941,-375.148,0,0
397883.95,41.1514,-371.161,0,0
399185.575,41.6385,-367.526,0,0
400006.6,42.0741,-365.458,0,0