File: Accelerated corrosion test data/2025-09-30_06-00-03/sample_7.csv
Frequency (Hz),Impedance (ohms),Phase (Radians),Temperature (C),Humidity (%)
10000.0,278.466,-12069.2,0,0
11301.625,250.405,-10677.6,0,0
12603.25,266.683,-9632.04,0,0
13904.875,212.044,-8736.76,0,0
15206.5,201.911,-7998.44,0,0
16508.125,174.6,-7360.48,0,0
17809.75,171.354,-6806.1,0,0
19111.375,183.716,-6369.96,0,0
20413.0,175.59,-5972.05,0,0
21714.625,157.729,-5629.19,0,0
23016.25,132.95,-5309.01,0,0
24317.875,125.155,-5016.42,0,0
25619.5,121.612,-4753.29,0,0
26921.1,125.508,-4508.35,0,0
28222.7,182.174,-4303.09,0,0
29524.4,138.174,-4162.62,0,0
30826,137.296,-3978.97,0,0
32127.6,120.071,-3835.34,0,0
33429.2,103.96,-3684.31,0,0
34730.9,94.9322,-3539.98,0,0
36032.5,90.9162,-3406.59,0,0
37334.1,88.3009,-3283.4,0,0
38635.7,88.5086,-3166.72,0,0
39937.4,99.1454,-3066.36,0,0
41239,88.9461,-2979.31,0,0
42540.6,82.0075,-2883.41,0,0
43842.225,81.2108,-2794.47,0,0
45143.85,82.1432,-2717.26,0,0
46445.475,79.3455,-2644.6,0,0
47747.1,72.7858,-2568.49,0,0
49048.725,70.1065,-2498.61,0,0
50350.35,67.99,-2431.5,0,0
51651.975,66.314,-2368.12,0,0
52953.6,65.312,-2307.61,0,0
54255.225,64.2558,-2250.84,0,0
55556.85,63.0106,-2196.13,0,0
56858.475,62.1787,-2143.8,0,0
58160.1,61.491,-2093.53,0,0
59461.7,61.6613,-2046.29,0,0
60763.3,61.1416,-2002.47,0,0
62065,59.1494,-1959.2,0,0
63366.6,58.0372,-1916.8,0,0
64668.2,56.9,-1876.05,0,0
65969.8,57.0291,-1837.58,0,0
67271.5,55.3482,-1800.85,0,0
68573.1,54.1334,-1764.09,0,0
69874.7,53.5443,-1728.85,0,0
71176.3,53.2354,-1695.46,0,0
72478,52.2944,-1663.05,0,0
73779.6,51.4568,-1631.32,0,0
75081.2,50.8601,-1600.53,0,0
76382.825,50.4487,-1570.82,0,0
77684.45,50.084,-1541.92,0,0
78986.075,49.8113,-1514.01,0,0
80287.7,49.6447,-1486.95,0,0
81589.325,49.3791,-1460.66,0,0
82890.95,49.336,-1435.15,0,0
84192.575,49.2842,-1410.02,0,0
85494.2,49.6095,-1386.03,0,0
86795.825,49.577,-1362.53,0,0
88097.45,49.8524,-1339.66,0,0
89399.075,49.7953,-1317.58,0,0
90700.7,50.2083,-1295.46,0,0
92002.3,50.7098,-1274.38,0,0
93303.9,50.9689,-1253.82,0,0
94605.6,52.679,-1233.91,0,0
95907.2,52.3947,-1215.73,0,0
97208.8,51.9299,-1196.11,0,0
98510.4,52.8665,-1176.63,0,0
99812.1,52.7128,-1158.34,0,0
101114,53.6282,-1139.45,0,0
102415,55.1455,-1121.58,0,0
103717,58.1452,-1104.35,0,0
105019,59.4087,-1089.58,0,0
106320.175,58.8333,-1074.07,0,0
107621.8,59.8542,-1057.42,0,0
108923.425,60.5939,-1042.08,0,0
110225.05,60.7206,-1025.5,0,0
111526.675,63.5676,-1008.28,0,0
112828.3,67.4445,-991.999,0,0
114129.925,72.4191,-978.53,0,0
115431.55,77.3151,-965.519,0,0
116733.175,84.9611,-954.92,0,0
118034.8,88.7978,-950.11,0,0
119336.425,91.6838,-945.176,0,0
120638.05,86.8492,-944.905,0,0
121939.675,76.5881,-935.328,0,0
123241,70.0359,-922.195,0,0
124543,65.6247,-907.57,0,0
125845,62.1155,-894.33,0,0
127146,59.0681,-879.876,0,0
128448,57.0381,-864.939,0,0
129749,55.7318,-850.275,0,0
131051,55.0719,-835.8,0,0
132353,54.2529,-820.722,0,0
133654,54.9404,-805.228,0,0
134956,57.5746,-790.241,0,0
136258,62.2942,-777.746,0,0
137559,63.3988,-768.978,0,0
138860.775,62.0206,-757.727,0,0
140162.4,61.8795,-744.157,0,0
141464.025,62.4417,-731.106,0,0
142765.65,63.3303,-717.342,0,0
144067.275,65.5716,-703.803,0,0
145368.9,67.6426,-691.472,0,0
146670.525,68.4896,-678.472,0,0
147972.15,70.1227,-665.012,0,0
149273.775,71.5781,-651.747,0,0
150575.4,72.4404,-636.309,0,0
151877.025,74.7846,-619.174,0,0
153178.65,79.6918,-601.086,0,0
154480,86.6153,-583.276,0,0
155782,96.1713,-565.767,0,0
157084,108.187,-550.381,0,0
158385,120.758,-538.316,0,0
159687,130.245,-529.297,0,0
160988,134.088,-514.115,0,0
162290,144.223,-490.674,0,0
163592,163.898,-467.526,0,0
164893,192.192,-448.567,0,0
166195,222.467,-433.55,0,0
167497,268.468,-422.674,0,0
168798,319.256,-432.914,0,0
170100,361.067,-462.381,0,0
171401.375,394.268,-507.895,0,0
172703.0,403.291,-558.175,0,0
174004.625,384.351,-609.376,0,0
175306.25,349.677,-633.742,0,0
176607.875,324.934,-625.88,0,0
177909.5,332.028,-628.101,0,0
179211.125,332.262,-664.314,0,0
180512.75,295.443,-687.196,0,0
181814.375,260.189,-698.415,0,0
183116.0,217.093,-688.285,0,0
184417.625,187.826,-665.855,0,0
185719.25,172.027,-641.65,0,0
187021,156.929,-617.28,0,0
188322,152.58,-590.649,0,0
189624,148.203,-574.689,0,0
190926,141.353,-552.071,0,0
192227,140.984,-526.136,0,0
193529,144.019,-502.096,0,0
194831,150.428,-477.578,0,0
196132,161.717,-455.258,0,0
197434,174.838,-435.956,0,0
198735,187.977,-417.515,0,0
200037,202.412,-398.488,0,0
201339,221.985,-378.023,0,0
202640.35,247.543,-358.244,0,0
203941.975,279.892,-343.985,0,0
205243.6,316.227,-338.916,0,0
206545.225,353.289,-342.968,0,0
207846.85,380.204,-355.897,0,0
209148.475,406.19,-353.537,0,0
210450.1,456.908,-368.623,0,0
211751.725,494.28,-412.507,0,0
213053.35,505.553,-457.557,0,0
214354.975,507.663,-501.113,0,0
215656.6,493.64,-536.423,0,0
216958.225,482.943,-563.806,0,0
218259.85,461.568,-592.284,0,0
219561,431.171,-608.626,0,0
220863,401.196,-604.058,0,0
222165,386.059,-590.55,0,0
223466,384.131,-578.495,0,0
224768,386.991,-570.184,0,0
226070,397.582,-563.109,0,0
227371,415.253,-568.277,0,0
228673,431.648,-581.951,0,0
229974,441.965,-609.823,0,0
231276,440.372,-642.387,0,0
232578,425.766,-672.265,0,0
233879,403.018,-702.931,0,0
235180.95,358.317,-721.545,0,0
236482.575,319.085,-711.179,0,0
237784.2,296.577,-699.215,0,0
239085.825,272.818,-682.658,0,0
240387.45,266.153,-661.801,0,0
241689.075,262.52,-654.568,0,0
242990.7,250.911,-647.169,0,0
244292.325,242.67,-629.665,0,0
245593.95,246.893,-612.473,0,0
246895.575,252.81,-607.19,0,0
248197.2,254.055,-603.192,0,0
249498.825,256.444,-598.534,0,0
250800,259.995,-596.448,0,0
252102,263.045,-595.813,0,0
253404,265.213,-598.888,0,0
254705,264.238,-604.55,0,0
256007,256.793,-609.076,0,0
257309,247.456,-607.675,0,0
258610,239.211,-602.373,0,0
259912,234.591,-594.339,0,0
261213,232.615,-584.773,0,0
262515,236.638,-573.311,0,0
263817,249.209,-568.873,0,0
265118,257.741,-575.423,0,0
266420,259.496,-580.53,0,0
267721.55,262.955,-585.341,0,0
269023.175,263.21,-593.155,0,0
270324.8,263.468,-598.118,0,0
271626.425,266.805,-607.683,0,0
272928.05,269.326,-628.251,0,0
274229.675,251.324,-656.499,0,0
275531.3,214.845,-668.807,0,0
276832.925,178.98,-660.673,0,0
278134.55,153.638,-639.634,0,0
279436.175,142.034,-615.4,0,0
280737.8,138.787,-595.536,0,0
282039.425,138.628,-581.382,0,0
283341,136.601,-569.057,0,0
284643,135.972,-554.221,0,0
285944,140.616,-540.671,0,0
287246,146.636,-531.675,0,0
288548,150.233,-524.851,0,0
289849,154.117,-515.916,0,0
291151,160.312,-507.768,0,0
292452,167.953,-501.579,0,0
293754,175.701,-496.841,0,0
295056,183.929,-492.609,0,0
296357,193.985,-488.774,0,0
297659,206.654,-487.529,0,0
298960.525,220.45,-490.473,0,0
300262.15,234.179,-497.095,0,0
301563.775,249.095,-508.706,0,0
302865.4,262.199,-531.398,0,0
304167.025,258.332,-561.711,0,0
305468.65,242.893,-583.056,0,0
306770.275,223.266,-596.549,0,0
308071.9,202.325,-602.348,0,0
309373.525,182.988,-601.808,0,0
310675.15,167.394,-597.112,0,0
311976.775,155.043,-590.829,0,0
313278.4,145.294,-584.425,0,0
314580,136.406,-577.573,0,0
315882,129.398,-569.409,0,0
317183,124.912,-561.634,0,0
318485,121.6,-554.932,0,0
319787,119.141,-548.539,0,0
321088,118.061,-543.522,0,0
322390,116.56,-540.05,0,0
323691,114.211,-537.07,0,0
324993,111.616,-533.895,0,0
326295,109.082,-530.67,0,0
327596,106.526,-527.874,0,0
328898,103.523,-525.312,0,0
330200,100.15,-522.319,0,0
331501.125,96.9301,-519.353,0,0
332802.75,92.7987,-516.74,0,0
334104.375,87.8869,-512.934,0,0
335406.0,83.2311,-507.907,0,0
336707.625,79.1627,-502.237,0,0
338009.25,75.8121,-495.633,0,0
339310.875,73.6838,-488.979,0,0
340612.5,72.0652,-482.53,0,0
341914.125,71.0416,-476.086,0,0
343215.75,70.8245,-469.708,0,0
344517.375,71.3868,-463.811,0,0
345819.0,72.4824,-458.869,0,0
347121,73.2235,-454.814,0,0
348422,73.2449,-451.228,0,0
349724,72.6236,-447.01,0,0
351025,72.3202,-442.125,0,0
352327,72.7686,-436.747,0,0
353629,74.3179,-431.731,0,0
354930,76.5548,-427.822,0,0
356232,78.2648,-425.313,0,0
357534,78.6168,-423.062,0,0
358835,78.0485,-420.13,0,0
360137,77.5325,-415.486,0,0
361438,78.5627,-410.323,0,0
362740.1,80.6791,-405.825,0,0
364041.725,83.1908,-402.073,0,0
365343.35,85.8158,-398.921,0,0
366644.975,88.5747,-396.762,0,0
367946.6,90.6196,-394.977,0,0
369248.225,92.7625,-393.455,0,0
370549.85,94.208,-393.12,0,0
371851.475,93.4258,-392.336,0,0
373153.1,92.4574,-389.387,0,0
374454.725,92.8821,-385.547,0,0
375756.35,94.151,-382.073,0,0
377057.975,95.6057,-378.795,0,0
378359.6,97.1812,-375.638,0,0
379661,99.1926,-372.22,0,0
380963,101.87,-369.148,0,0
382264,104.756,-366.5,0,0
383566,107.967,-364.372,0,0
384868,110.873,-362.774,0,0
386169,113.486,-361.419,0,0
387471,115.82,-359.567,0,0
388773,118.705,-357.46,0,0
390074,122.424,-355.42,0,0
391376,126.606,-354.139,0,0
392677,130.587,-353.471,0,0
393979,134.96,-352.414,0,0
395280.7,140.53,-351.917,0,0
396582.325,147.03,-353.035,0,0
397883.95,154.121,-355.782,0,0
399185.575,161.094,-362.093,0,0
400006.6,163.893,-368.055,0,0