File: Accelerated corrosion test data/2025-09-30_06-00-03/sample_1.csv
Frequency (Hz),Impedance (ohms),Phase (Radians),Temperature (C),Humidity (%)
10000.0,239.417,-12223.6,0,0
11301.625,213.936,-10826.5,0,0
12603.25,194.08,-9725.49,0,0
13904.875,180.959,-8799.06,0,0
15206.5,179.181,-8070.02,0,0
16508.125,155.08,-7439.51,0,0
17809.75,150.247,-6904.96,0,0
19111.375,135.437,-6433.76,0,0
20413.0,154.629,-5991.97,0,0
21714.625,137.663,-5677.79,0,0
23016.25,123.172,-5369.17,0,0
24317.875,112.479,-5076.75,0,0
25619.5,104.416,-4812.09,0,0
26921.1,113.651,-4564.79,0,0
28222.7,110.584,-4360.12,0,0
29524.4,107.003,-4191.41,0,0
30826,100.579,-4005.71,0,0
32127.6,98.6731,-3846.14,0,0
33429.2,88.8199,-3703.04,0,0
34730.9,82.2828,-3560.58,0,0
36032.5,77.981,-3429.44,0,0
37334.1,75.4822,-3306.89,0,0
38635.7,72.724,-3193.22,0,0
39937.4,71.3498,-3086.31,0,0
41239,72.1489,-2987.22,0,0
42540.6,71.4552,-2895.22,0,0
43842.225,68.0614,-2807.47,0,0
45143.85,68.639,-2725.86,0,0
46445.475,65.7569,-2649.89,0,0
47747.1,64.1065,-2575.98,0,0
49048.725,61.5572,-2505.64,0,0
50350.35,60.022,-2439.01,0,0
51651.975,58.7289,-2375.33,0,0
52953.6,57.7361,-2314.22,0,0
54255.225,56.9972,-2257.15,0,0
55556.85,56.0742,-2201.59,0,0
56858.475,54.8849,-2148.62,0,0
58160.1,54.7205,-2097.87,0,0
59461.7,54.6372,-2049.76,0,0
60763.3,54.6373,-2003.72,0,0
62065,53.3177,-1959.91,0,0
63366.6,52.7463,-1916.08,0,0
64668.2,53.1123,-1874.16,0,0
65969.8,55.5006,-1836.12,0,0
67271.5,53.8409,-1799.28,0,0
68573.1,53.5113,-1763.87,0,0
69874.7,52.2969,-1729.95,0,0
71176.3,50.832,-1695.23,0,0
72478,48.9558,-1661.64,0,0
73779.6,48.39,-1627.94,0,0
75081.2,48.6969,-1595.91,0,0
76382.825,49.7713,-1564.66,0,0
77684.45,50.4181,-1535.1,0,0
78986.075,52.1883,-1507.43,0,0
80287.7,51.386,-1481.04,0,0
81589.325,51.2486,-1453.31,0,0
82890.95,51.4537,-1426.29,0,0
84192.575,53.2832,-1400.02,0,0
85494.2,55.2324,-1375.63,0,0
86795.825,56.4294,-1352.04,0,0
88097.45,56.8504,-1329,0,0
89399.075,57.9433,-1304.27,0,0
90700.7,61.9858,-1280.94,0,0
92002.3,68.4143,-1259.44,0,0
93303.9,75.9518,-1242.54,0,0
94605.6,74.8198,-1235.28,0,0
95907.2,67.7502,-1217.22,0,0
97208.8,64.7656,-1196.42,0,0
98510.4,64.3168,-1176.22,0,0
99812.1,63.7187,-1155.63,0,0
101114,64.0566,-1136.31,0,0
102415,63.5824,-1114.31,0,0
103717,68.069,-1093.07,0,0
105019,75.1318,-1075.01,0,0
106320.175,81.7075,-1059.08,0,0
107621.8,88.2995,-1046.81,0,0
108923.425,93.2973,-1036.11,0,0
110225.05,94.7101,-1027.13,0,0
111526.675,95.2862,-1015.54,0,0
112828.3,97.3397,-1005.91,0,0
114129.925,96.27,-998.25,0,0
115431.55,92.1025,-988.841,0,0
116733.175,86.7822,-976.131,0,0
118034.8,82.9202,-961.14,0,0
119336.425,81.8248,-945.34,0,0
120638.05,82.2527,-931.2,0,0
121939.675,81.2776,-918.745,0,0
123241,79.6574,-904.23,0,0
124543,79.5927,-889.233,0,0
125845,80.3682,-874.639,0,0
127146,81.2373,-860.207,0,0
128448,83.3394,-845.16,0,0
129749,86.5269,-831.032,0,0
131051,91.6103,-817.967,0,0
132353,95.8453,-807.371,0,0
133654,99.0723,-797.342,0,0
134956,101.146,-787.082,0,0
136258,104.362,-776.027,0,0
137559,108.779,-766.35,0,0
138860.775,111.216,-760.412,0,0
140162.4,110.684,-752.069,0,0
141464.025,110.354,-741.327,0,0
142765.65,111.701,-730.792,0,0
144067.275,112.18,-720.138,0,0
145368.9,114.032,-708.239,0,0
146670.525,117.34,-697.243,0,0
147972.15,120.541,-688.117,0,0
149273.775,122.192,-678.628,0,0
150575.4,123.434,-669.262,0,0
151877.025,122.816,-658.081,0,0
153178.65,123.728,-643.485,0,0
154480,126.197,-627.522,0,0
155782,134.518,-609.821,0,0
157084,146.386,-595.599,0,0
158385,158.728,-586.24,0,0
159687,170.138,-574.909,0,0
160988,187.218,-565.91,0,0
162290,203.456,-564.381,0,0
163592,218.189,-564.644,0,0
164893,230.098,-568.157,0,0
166195,243.046,-575.946,0,0
167497,247.189,-588.221,0,0
168798,244.9,-597.89,0,0
170100,236.784,-603.165,0,0
171401.375,230.856,-601.474,0,0
172703.0,224.17,-598.869,0,0
174004.625,219.844,-592.019,0,0
175306.25,220.648,-585.402,0,0
176607.875,220.14,-582.934,0,0
177909.5,217.887,-579.715,0,0
179211.125,216,-576.762,0,0
180512.75,210.251,-574.402,0,0
181814.375,202.511,-567.81,0,0
183116.0,194.066,-556.951,0,0
184417.625,189.449,-541.909,0,0
185719.25,188.431,-526.482,0,0
187021,189.627,-511.096,0,0
188322,192.033,-496.302,0,0
189624,195.524,-479.844,0,0
190926,201.657,-464.183,0,0
192227,208.882,-448.744,0,0
193529,216.329,-432.665,0,0
194831,226.267,-415.514,0,0
196132,239.69,-397.16,0,0
197434,257.031,-378.742,0,0
198735,277.269,-364.164,0,0
200037,298.506,-348.87,0,0
201339,325.42,-331.746,0,0
202640.35,361.39,-318.683,0,0
203941.975,403.903,-312.728,0,0
205243.6,455.382,-320.383,0,0
206545.225,500.622,-349.129,0,0
207846.85,529.909,-389.15,0,0
209148.475,542.559,-429.404,0,0
210450.1,539.74,-463.305,0,0
211751.725,530.362,-481.614,0,0
213053.35,531.649,-486.131,0,0
214354.975,542.748,-495.001,0,0
215656.6,554.948,-511.714,0,0
216958.225,560.724,-526.586,0,0
218259.85,574.592,-539.981,0,0
219561,591.018,-558.386,0,0
220863,609.754,-585.174,0,0
222165,625.764,-622.779,0,0
223466,632.894,-669.963,0,0
224768,624.606,-721.626,0,0
226070,603.411,-771.597,0,0
227371,567.628,-813.885,0,0
228673,524.833,-843.071,0,0
229974,479.42,-860.851,0,0
231276,434.819,-865.345,0,0
232578,399.058,-860.88,0,0
233879,369.95,-855.559,0,0
235180.95,344.249,-850,0,0
236482.575,319.605,-843.45,0,0
237784.2,298.909,-835.54,0,0
239085.825,277.708,-828.849,0,0
240387.45,256.658,-818.685,0,0
241689.075,238.922,-806.176,0,0
242990.7,224.483,-793.225,0,0
244292.325,212.36,-781.721,0,0
245593.95,200.202,-770.792,0,0
246895.575,188.761,-758.816,0,0
248197.2,179.033,-746.292,0,0
249498.825,170.725,-733.931,0,0
250800,163.503,-721.774,0,0
252102,157.016,-709.709,0,0
253404,151.344,-697.322,0,0
254705,147.013,-684.062,0,0
256007,144.886,-671.369,0,0
257309,143.772,-659.355,0,0
258610,144.267,-647.782,0,0
259912,146.106,-636.847,0,0
261213,149.955,-627.383,0,0
262515,154.49,-620.225,0,0
263817,159.693,-614.263,0,0
265118,166.363,-611.184,0,0
266420,172.293,-612.522,0,0
267721.55,174.607,-618.086,0,0
269023.175,169.593,-624.485,0,0
270324.8,159.194,-625.1,0,0
271626.425,150.096,-619.635,0,0
272928.05,144.48,-611.29,0,0
274229.675,142.013,-603.048,0,0
275531.3,141.287,-595.256,0,0
276832.925,141.982,-588.677,0,0
278134.55,144.06,-583.301,0,0
279436.175,146.548,-579.968,0,0
280737.8,148.155,-579.241,0,0
282039.425,146.87,-579.13,0,0
283341,144.183,-577.884,0,0
284643,140.95,-575.462,0,0
285944,136.575,-572.096,0,0
287246,132.442,-566.393,0,0
288548,130.044,-558.29,0,0
289849,131.979,-550.214,0,0
291151,134.642,-546.213,0,0
292452,135.36,-542.736,0,0
293754,135.67,-538.608,0,0
295056,135.606,-533.208,0,0
296357,138.102,-526.305,0,0
297659,143.22,-521.405,0,0
298960.525,148.45,-518.158,0,0
300262.15,154.455,-516.339,0,0
301563.775,160.163,-516.179,0,0
302865.4,165.887,-517.685,0,0
304167.025,170.785,-520.614,0,0
305468.65,174.232,-525.307,0,0
306770.275,176.296,-530.053,0,0
308071.9,177.629,-535.971,0,0
309373.525,176.763,-542.631,0,0
310675.15,174.042,-548.755,0,0
311976.775,170.002,-554.399,0,0
313278.4,164.137,-559.703,0,0
314580,156.938,-563.314,0,0
315882,149.146,-565.431,0,0
317183,140.782,-566.086,0,0
318485,132.48,-564.602,0,0
319787,125.376,-562.226,0,0
321088,118.234,-559.173,0,0
322390,111.423,-554.536,0,0
323691,106.422,-548.642,0,0
324993,103.324,-542.659,0,0
326295,101.705,-537.673,0,0
327596,100.598,-533.934,0,0
328898,99.558,-531.16,0,0
330200,98.0602,-528.957,0,0
331501.125,96.0656,-527.371,0,0
332802.75,93.3012,-525.839,0,0
334104.375,89.8631,-524.006,0,0
335406.0,86.1247,-521.504,0,0
336707.625,82.485,-518.222,0,0
338009.25,79.0004,-514.714,0,0
339310.875,75.7378,-510.798,0,0
340612.5,72.967,-506.484,0,0
341914.125,70.7249,-502.287,0,0
343215.75,68.5296,-498.242,0,0
344517.375,66.4781,-494.168,0,0
345819.0,64.3764,-489.905,0,0
347121,62.5411,-485.377,0,0
348422,61.0673,-480.795,0,0
349724,59.9444,-476.089,0,0
351025,59.2288,-471.506,0,0
352327,58.8031,-467.213,0,0
353629,58.2783,-463.152,0,0
354930,57.9625,-458.902,0,0
356232,57.9645,-454.744,0,0
357534,58.1375,-450.874,0,0
358835,58.3712,-447.319,0,0
360137,58.489,-443.695,0,0
361438,58.8122,-440.11,0,0
362740.1,59.1353,-436.781,0,0
364041.725,59.3599,-433.455,0,0
365343.35,59.4711,-429.925,0,0
366644.975,59.9216,-426.217,0,0
367946.6,60.4567,-422.456,0,0
369248.225,61.3263,-418.232,0,0
370549.85,63.4096,-413.881,0,0
371851.475,66.2776,-410.454,0,0
373153.1,69.5143,-408.007,0,0
374454.725,72.757,-406.531,0,0
375756.35,75.3741,-406.058,0,0
377057.975,77.4164,-405.647,0,0
378359.6,79.2786,-405.512,0,0
379661,80.6829,-405.659,0,0
380963,82.1631,-406.028,0,0
382264,83.4823,-407.207,0,0
383566,83.5385,-409.382,0,0
384868,81.8281,-411.296,0,0
386169,79.2296,-412.048,0,0
387471,76.287,-411.701,0,0
388773,73.404,-410.296,0,0
390074,71.4812,-408.079,0,0
391376,70.2169,-406.263,0,0
392677,68.718,-405.011,0,0
393979,66.4091,-403.622,0,0
395280.7,63.8696,-401.213,0,0
396582.325,61.7907,-398.134,0,0
397883.95,60.182,-394.719,0,0
399185.575,59.0268,-391.225,0,0
400006.6,58.4655,-388.905,0,0