File: Accelerated corrosion test data/2025-10-12_18-00-03/sample_4.csv
Frequency (Hz),Impedance (ohms),Phase (Radians),Temperature (C),Humidity (%)
10000.0,271.311,-11764.1,0,0
11301.625,240.429,-10422.7,0,0
12603.25,218.606,-9351.09,0,0
13904.875,198.177,-8479.58,0,0
15206.5,186.434,-7761.64,0,0
16508.125,188.672,-7154.74,0,0
17809.75,159.959,-6649.83,0,0
19111.375,148.851,-6197.18,0,0
20413.0,143.575,-5800.46,0,0
21714.625,147.809,-5459.74,0,0
23016.25,128.197,-5161.24,0,0
24317.875,118.828,-4879.63,0,0
25619.5,115.228,-4627.81,0,0
26921.1,109.331,-4401.3,0,0
28222.7,123.397,-4199.92,0,0
29524.4,113.764,-4021.42,0,0
30826,101.011,-3851.75,0,0
32127.6,101.724,-3693.42,0,0
33429.2,91.4304,-3553.17,0,0
34730.9,86.9281,-3416.28,0,0
36032.5,83.4056,-3289.72,0,0
37334.1,81.3726,-3171.86,0,0
38635.7,79.0265,-3061.62,0,0
39937.4,78.6955,-2956.42,0,0
41239,80.6112,-2862.12,0,0
42540.6,80.5061,-2776,0,0
43842.225,75.159,-2692.89,0,0
45143.85,72.6294,-2612.55,0,0
46445.475,71.8671,-2535.7,0,0
47747.1,71.3956,-2466.92,0,0
49048.725,67.6722,-2398,0,0
50350.35,65.9473,-2331.28,0,0
51651.975,65.3213,-2267.15,0,0
52953.6,67.1779,-2204.89,0,0
54255.225,75.1642,-2149.3,0,0
55556.85,73.2585,-2106.28,0,0
56858.475,67.1483,-2052.79,0,0
58160.1,68.2653,-2000.97,0,0
59461.7,72.8631,-1951.15,0,0
60763.3,81.7874,-1913.71,0,0
62065,71.5351,-1880.57,0,0
63366.6,65.5105,-1835.48,0,0
64668.2,66.2,-1792.81,0,0
65969.8,68.2293,-1752.42,0,0
67271.5,72.2098,-1717.36,0,0
68573.1,74.4248,-1689.25,0,0
69874.7,66.9302,-1658.12,0,0
71176.3,65.9495,-1624.1,0,0
72478,60.3773,-1593.14,0,0
73779.6,59.1219,-1557.06,0,0
75081.2,61.2111,-1524.71,0,0
76382.825,63.3121,-1496.41,0,0
77684.45,65.8653,-1469.14,0,0
78986.075,64.0763,-1446.53,0,0
80287.7,61.2742,-1419.6,0,0
81589.325,60.5482,-1393.65,0,0
82890.95,59.3171,-1368.55,0,0
84192.575,58.3499,-1343.65,0,0
85494.2,57.7319,-1319.48,0,0
86795.825,57.1113,-1296.15,0,0
88097.45,55.9259,-1273.95,0,0
89399.075,54.1858,-1250.06,0,0
90700.7,53.9924,-1226.84,0,0
92002.3,54.2876,-1203.79,0,0
93303.9,55.2241,-1183.19,0,0
94605.6,54.1048,-1162.32,0,0
95907.2,54.0037,-1139.8,0,0
97208.8,55.1189,-1118.24,0,0
98510.4,56.7573,-1096.82,0,0
99812.1,59.7421,-1076.27,0,0
101114,64.5524,-1058.5,0,0
102415,63.3098,-1044.74,0,0
103717,60.4899,-1021.64,0,0
105019,64.9803,-998.227,0,0
106320.175,72.1362,-978.328,0,0
107621.8,79.4453,-961.33,0,0
108923.425,88.108,-946.06,0,0
110225.05,95.9183,-934.837,0,0
111526.675,101.282,-925.196,0,0
112828.3,105.034,-916.392,0,0
114129.925,107.041,-908.141,0,0
115431.55,107.435,-899.986,0,0
116733.175,105.63,-891.206,0,0
118034.8,102.162,-879.287,0,0
119336.425,102.81,-863.729,0,0
120638.05,107.966,-858.274,0,0
121939.675,101.154,-850.867,0,0
123241,96.7614,-838.327,0,0
124543,93.4926,-825.38,0,0
125845,91.0492,-812.587,0,0
127146,87.632,-800.185,0,0
128448,83.4993,-787.253,0,0
129749,78.4148,-771.892,0,0
131051,74.7889,-754.176,0,0
132353,73.1111,-735.69,0,0
133654,73.004,-717.147,0,0
134956,74.1083,-698.692,0,0
136258,76.6122,-680.507,0,0
137559,79.5724,-663.705,0,0
138860.775,81.5976,-646.021,0,0
140162.4,85.1311,-627.261,0,0
141464.025,90.1283,-608.495,0,0
142765.65,96.1493,-589.89,0,0
144067.275,103.349,-571.247,0,0
145368.9,111.972,-552.541,0,0
146670.525,122.179,-534.23,0,0
147972.15,133.651,-516.514,0,0
149273.775,147.02,-498.818,0,0
150575.4,163.1,-481.632,0,0
151877.025,182.725,-466.728,0,0
153178.65,205.15,-456.822,0,0
154480,225.523,-453.551,0,0
155782,241.104,-449.964,0,0
157084,254.966,-446.526,0,0
158385,271.703,-440.076,0,0
159687,293.928,-438.729,0,0
160988,310.661,-449.194,0,0
162290,316.016,-454.075,0,0
163592,322.445,-452.505,0,0
164893,334.069,-448.358,0,0
166195,350.738,-444.569,0,0
167497,376.686,-449.21,0,0
168798,398.411,-470.442,0,0
170100,407.864,-500.652,0,0
171401.375,395.821,-534.5,0,0
172703.0,367.643,-552.195,0,0
174004.625,336.176,-550.639,0,0
175306.25,312.308,-534.88,0,0
176607.875,299.338,-511.842,0,0
177909.5,296.072,-489.455,0,0
179211.125,296.85,-469.198,0,0
180512.75,300.835,-450.941,0,0
181814.375,305.308,-433.369,0,0
183116.0,310.005,-414.13,0,0
184417.625,317.94,-391.798,0,0
185719.25,330.71,-367.943,0,0
187021,348.905,-343.569,0,0
188322,373.102,-319.659,0,0
189624,404.328,-297.583,0,0
190926,443.382,-280.385,0,0
192227,488.546,-270.303,0,0
193529,537.238,-269.993,0,0
194831,585.933,-278.803,0,0
196132,634.235,-294.002,0,0
197434,685.063,-317.476,0,0
198735,736.128,-355.282,0,0
200037,778.556,-410.617,0,0
201339,802.369,-476.93,0,0
202640.35,805.563,-541.044,0,0
203941.975,799.767,-596.614,0,0
205243.6,785.775,-647.671,0,0
206545.225,769.433,-692.033,0,0
207846.85,746.526,-743.349,0,0
209148.475,704.445,-782.836,0,0
210450.1,660.841,-803.693,0,0
211751.725,622.057,-811.237,0,0
213053.35,594.132,-810.992,0,0
214354.975,575.525,-808.485,0,0
215656.6,568.445,-814.4,0,0
216958.225,554.031,-830.06,0,0
218259.85,536.442,-842.482,0,0
219561,517.731,-856.475,0,0
220863,493.369,-870.805,0,0
222165,465.293,-880.61,0,0
223466,435.898,-885.348,0,0
224768,407.216,-887.111,0,0
226070,376.449,-885.234,0,0
227371,346.26,-877.572,0,0
228673,318.178,-864.277,0,0
229974,295.85,-846.181,0,0
231276,279.278,-827.269,0,0
232578,267.264,-809.163,0,0
233879,258.875,-792.032,0,0
235180.95,253.234,-776.848,0,0
236482.575,249.079,-764.664,0,0
237784.2,245.286,-752.815,0,0
239085.825,244.024,-743.215,0,0
240387.45,241.953,-736.628,0,0
241689.075,238.419,-731.405,0,0
242990.7,232.951,-726.34,0,0
244292.325,226.353,-720.31,0,0
245593.95,219.46,-712.147,0,0
246895.575,214.368,-702.709,0,0
248197.2,211.776,-694.683,0,0
249498.825,207.422,-687.86,0,0
250800,202.387,-680.773,0,0
252102,195.834,-672.877,0,0
253404,187.897,-661.159,0,0
254705,183.132,-645.158,0,0
256007,181.862,-626.694,0,0
257309,187.448,-607.226,0,0
258610,198.931,-590.487,0,0
259912,215.124,-578.187,0,0
261213,234.225,-571.223,0,0
262515,254.123,-571.336,0,0
263817,274.358,-578.222,0,0
265118,289.63,-594.088,0,0
266420,297.276,-613.643,0,0
267721.55,296.586,-633.694,0,0
269023.175,288.724,-652.669,0,0
270324.8,273.341,-663.506,0,0
271626.425,262.205,-667.248,0,0
272928.05,253.465,-672.752,0,0
274229.675,241.971,-679.725,0,0
275531.3,224.87,-684.644,0,0
276832.925,205.02,-682.206,0,0
278134.55,187.578,-671.243,0,0
279436.175,178.831,-655.011,0,0
280737.8,178.015,-643.677,0,0
282039.425,176.869,-636.755,0,0
283341,175.833,-629.436,0,0
284643,176.21,-624.921,0,0
285944,174.569,-622.419,0,0
287246,169.544,-617.864,0,0
288548,165.852,-607.938,0,0
289849,170.301,-595.716,0,0
291151,181.779,-590.057,0,0
292452,193.711,-593.731,0,0
293754,199.796,-605.468,0,0
295056,196.585,-618.77,0,0
296357,185.851,-627.933,0,0
297659,173.228,-629.912,0,0
298960.525,162.904,-628.112,0,0
300262.15,154.202,-625.121,0,0
301563.775,146.129,-621.194,0,0
302865.4,139.364,-616.044,0,0
304167.025,133.444,-610.449,0,0
305468.65,128.93,-604.223,0,0
306770.275,125.854,-598.083,0,0
308071.9,124.436,-592.975,0,0
309373.525,123.153,-589.927,0,0
310675.15,120.136,-587.668,0,0
311976.775,116.26,-584.157,0,0
313278.4,112.973,-579.82,0,0
314580,110.836,-575.258,0,0
315882,109.168,-571.633,0,0
317183,107.556,-568.72,0,0
318485,105.582,-566.472,0,0
319787,102.83,-564.936,0,0
321088,98.487,-563.517,0,0
322390,92.2258,-560.99,0,0
323691,85.6567,-555.042,0,0
324993,81.7798,-547.489,0,0
326295,79.4825,-540.601,0,0
327596,77.4948,-534.086,0,0
328898,76.2033,-526.945,0,0
330200,76.5546,-519.898,0,0
331501.125,78.2649,-514.487,0,0
332802.75,79.736,-510.886,0,0
334104.375,79.8522,-508.291,0,0
335406.0,78.6358,-505.334,0,0
336707.625,76.5449,-501.129,0,0
338009.25,75.4784,-495.236,0,0
339310.875,75.6816,-489.103,0,0
340612.5,77.5337,-482.93,0,0
341914.125,81.3244,-477.927,0,0
343215.75,85.9796,-475.885,0,0
344517.375,88.8627,-476.26,0,0
345819.0,89.4761,-477.13,0,0
347121,88.3228,-477.409,0,0
348422,86.4759,-476.504,0,0
349724,84.1994,-474.682,0,0
351025,82.1887,-471.855,0,0
352327,80.5388,-468.34,0,0
353629,79.7708,-464.255,0,0
354930,80.4962,-460.771,0,0
356232,80.7368,-458.672,0,0
357534,80.0423,-456.731,0,0
358835,78.6212,-453.921,0,0
360137,77.6011,-449.908,0,0
361438,77.7542,-445.594,0,0
362740.1,78.8588,-441.924,0,0
364041.725,79.9403,-439.148,0,0
365343.35,80.2167,-436.45,0,0
366644.975,80.5683,-432.692,0,0
367946.6,82.2829,-428.448,0,0
369248.225,85.35,-424.678,0,0
370549.85,89.666,-422.304,0,0
371851.475,94.5803,-422.049,0,0
373153.1,98.365,-424.586,0,0
374454.725,99.0792,-428.353,0,0
375756.35,97.1911,-430.509,0,0
377057.975,95.5098,-430.574,0,0
378359.6,94.6229,-430.798,0,0
379661,92.8619,-431.203,0,0
380963,90.9834,-430.622,0,0
382264,89.8125,-429.31,0,0
383566,89.9706,-429.602,0,0
384868,87.6895,-431.655,0,0
386169,82.6955,-432.273,0,0
387471,77.3904,-429.506,0,0
388773,74.1528,-424.723,0,0
390074,73.9474,-420.148,0,0
391376,75.0522,-418.298,0,0
392677,74.0134,-418.899,0,0
393979,70.2106,-418.273,0,0
395280.7,66.1048,-415.361,0,0
396582.325,63.0817,-411.092,0,0
397883.95,61.0896,-406.688,0,0
399185.575,59.5712,-402.066,0,0
400006.6,58.9204,-399.052,0,0