File: Accelerated corrosion test data/2025-10-12_18-00-03/sample_6.csv
Frequency (Hz),Impedance (ohms),Phase (Radians),Temperature (C),Humidity (%)
10000.0,4225.74,-6344.79,0,0
11301.625,3607.03,-5995.07,0,0
12603.25,3111.7,-5654.08,0,0
13904.875,2709.12,-5340.54,0,0
15206.5,2378.66,-5044.99,0,0
16508.125,2104.74,-4773.15,0,0
17809.75,1877.61,-4523.36,0,0
19111.375,1684.96,-4293.93,0,0
20413.0,1520.57,-4085.58,0,0
21714.625,1379.39,-3891.2,0,0
23016.25,1260.77,-3712.45,0,0
24317.875,1154.78,-3552.29,0,0
25619.5,1062,-3401.59,0,0
26921.1,980.804,-3261.21,0,0
28222.7,909.542,-3131.98,0,0
29524.4,845.171,-3009.17,0,0
30826,790.933,-2896.68,0,0
32127.6,742.131,-2790.5,0,0
33429.2,702.451,-2696.24,0,0
34730.9,658.872,-2607.2,0,0
36032.5,619.095,-2524.15,0,0
37334.1,584.215,-2440.42,0,0
38635.7,553.068,-2361.65,0,0
39937.4,529.921,-2287.69,0,0
41239,506.869,-2222.74,0,0
42540.6,481.343,-2161.7,0,0
43842.225,460.677,-2097.57,0,0
45143.85,444.371,-2039.72,0,0
46445.475,428.87,-1988.67,0,0
47747.1,412.31,-1938.97,0,0
49048.725,397.349,-1892.24,0,0
50350.35,380.378,-1850.72,0,0
51651.975,362.916,-1806.33,0,0
52953.6,347.798,-1763.01,0,0
54255.225,332.206,-1720.89,0,0
55556.85,320.436,-1680.76,0,0
56858.475,308.333,-1639.1,0,0
58160.1,302.946,-1602.36,0,0
59461.7,294.138,-1571.44,0,0
60763.3,283.147,-1540.23,0,0
62065,269.323,-1507.31,0,0
63366.6,264.469,-1471.76,0,0
64668.2,256.753,-1446.1,0,0
65969.8,246.259,-1415.58,0,0
67271.5,239.188,-1386.34,0,0
68573.1,232.971,-1358.56,0,0
69874.7,226.73,-1332.59,0,0
71176.3,219.535,-1307.36,0,0
72478,212.583,-1281.34,0,0
73779.6,207.119,-1256.02,0,0
75081.2,202.558,-1231.95,0,0
76382.825,197.595,-1209.33,0,0
77684.45,192.512,-1186.86,0,0
78986.075,187.625,-1164.77,0,0
80287.7,182.699,-1143.06,0,0
81589.325,178.065,-1121.21,0,0
82890.95,174.258,-1099.41,0,0
84192.575,170.996,-1077.68,0,0
85494.2,169.36,-1056.23,0,0
86795.825,168.782,-1036.56,0,0
88097.45,168.372,-1017.95,0,0
89399.075,168.723,-1000.28,0,0
90700.7,168.828,-985.849,0,0
92002.3,165.391,-971.971,0,0
93303.9,161.949,-955.139,0,0
94605.6,160.879,-937.522,0,0
95907.2,160.926,-922.289,0,0
97208.8,159.907,-909.2,0,0
98510.4,157.395,-894.27,0,0
99812.1,157.824,-879.835,0,0
101114,157.84,-868.185,0,0
102415,155.554,-856.814,0,0
103717,152.895,-846.323,0,0
105019,146.735,-835.971,0,0
106320.175,137.837,-820.034,0,0
107621.8,134.325,-799.361,0,0
108923.425,135.941,-780.848,0,0
110225.05,138.359,-764.161,0,0
111526.675,143.304,-749.472,0,0
112828.3,147.896,-739.781,0,0
114129.925,149.314,-730.784,0,0
115431.55,151.697,-721.073,0,0
116733.175,152.391,-717.47,0,0
118034.8,143.713,-709.616,0,0
119336.425,138.779,-694.143,0,0
120638.05,139.886,-678.269,0,0
121939.675,141.798,-669.101,0,0
123241,140.073,-658.126,0,0
124543,139.346,-647.274,0,0
125845,137.692,-636.326,0,0
127146,135.854,-623.991,0,0
128448,135.571,-610.025,0,0
129749,137.045,-597.741,0,0
131051,137.526,-585.722,0,0
132353,138.569,-572.928,0,0
133654,140.926,-560.584,0,0
134956,143.286,-548.831,0,0
136258,146.029,-536.942,0,0
137559,150.479,-525.715,0,0
138860.775,153.902,-516.797,0,0
140162.4,156.531,-507.445,0,0
141464.025,159.673,-498.423,0,0
142765.65,160.744,-490.801,0,0
144067.275,160.834,-480.435,0,0
145368.9,162.822,-468.992,0,0
146670.525,165.642,-459.189,0,0
147972.15,166.13,-449.97,0,0
149273.775,166.189,-437.378,0,0
150575.4,168.476,-423.442,0,0
151877.025,172.447,-408.684,0,0
153178.65,180.282,-395.699,0,0
154480,186.309,-385.596,0,0
155782,192.41,-373.107,0,0
157084,201.308,-363.604,0,0
158385,206.26,-355.812,0,0
159687,210.956,-346.159,0,0
160988,215.68,-335.616,0,0
162290,220.685,-324.62,0,0
163592,226.394,-312.756,0,0
164893,231.64,-300.965,0,0
166195,237.519,-287.278,0,0
167497,244.319,-272.801,0,0
168798,252.714,-257.55,0,0
170100,261.632,-242.149,0,0
171401.375,271.224,-225.225,0,0
172703.0,282.547,-206.525,0,0
174004.625,296.14,-185.762,0,0
175306.25,313.595,-163.205,0,0
176607.875,335.999,-139.909,0,0
177909.5,364.268,-117.222,0,0
179211.125,398.846,-97.4394,0,0
180512.75,436.71,-83.6931,0,0
181814.375,475.762,-72.6465,0,0
183116.0,517.301,-65.4799,0,0
184417.625,559.078,-59.8983,0,0
185719.25,605.601,-52.8574,0,0
187021,662.085,-48.9111,0,0
188322,727.359,-54.0297,0,0
189624,800.254,-70.9479,0,0
190926,878.041,-105.773,0,0
192227,952.566,-160.359,0,0
193529,1020.12,-232.814,0,0
194831,1076.29,-325.143,0,0
196132,1111.15,-435.211,0,0
197434,1116.83,-554.738,0,0
198735,1091.24,-670.03,0,0
200037,1042.12,-771.754,0,0
201339,974.616,-856.128,0,0
202640.35,894.777,-918.341,0,0
203941.975,812.678,-958.108,0,0
205243.6,734.736,-980.091,0,0
206545.225,662.787,-988.451,0,0
207846.85,598.447,-987.35,0,0
209148.475,541.423,-979.286,0,0
210450.1,491.624,-966.859,0,0
211751.725,446.794,-951.145,0,0
213053.35,408.391,-932.907,0,0
214354.975,374.007,-914.096,0,0
215656.6,343.812,-892.988,0,0
216958.225,318.182,-871.584,0,0
218259.85,295.88,-849.887,0,0
219561,277.204,-827.98,0,0
220863,261.678,-806.248,0,0
222165,249.301,-785.219,0,0
223466,239.869,-765.085,0,0
224768,232.895,-746.421,0,0
226070,227.681,-729.951,0,0
227371,222.559,-715.133,0,0
228673,217.423,-700.557,0,0
229974,212.971,-685.578,0,0
231276,210.214,-670.428,0,0
232578,209.042,-655.481,0,0
233879,209.626,-640.945,0,0
235180.95,212.103,-627.25,0,0
236482.575,216.304,-614.766,0,0
237784.2,222.096,-603.64,0,0
239085.825,229.31,-594.369,0,0
240387.45,237.703,-587.159,0,0
241689.075,246.758,-582.265,0,0
242990.7,256.256,-579.458,0,0
244292.325,266.689,-579.393,0,0
245593.95,276.436,-583.856,0,0
246895.575,282.398,-591.156,0,0
248197.2,285.556,-598.737,0,0
249498.825,286.619,-605.327,0,0
250800,288.707,-612.248,0,0
252102,289.57,-621.765,0,0
253404,288.405,-633.279,0,0
254705,282.698,-646.57,0,0
256007,271.729,-658.159,0,0
257309,257.905,-665.781,0,0
258610,243.526,-669.807,0,0
259912,229.404,-671.24,0,0
261213,215.659,-670.455,0,0
262515,202.894,-667.916,0,0
263817,191.292,-663.951,0,0
265118,180.707,-659.135,0,0
266420,171.196,-653.914,0,0
267721.55,162.503,-648.385,0,0
269023.175,154.494,-642.494,0,0
270324.8,147.143,-636.434,0,0
271626.425,140.381,-630.195,0,0
272928.05,134.198,-623.802,0,0
274229.675,128.632,-617.375,0,0
275531.3,123.464,-611.008,0,0
276832.925,118.716,-604.599,0,0
278134.55,114.361,-598.12,0,0
279436.175,110.418,-591.484,0,0
280737.8,107.516,-584.684,0,0
282039.425,105.278,-578.854,0,0
283341,102.832,-573.39,0,0
284643,100.509,-567.924,0,0
285944,98.9674,-562.755,0,0
287246,97.3703,-558.548,0,0
288548,95.0019,-554.527,0,0
289849,92.5723,-550.13,0,0
291151,90.4612,-545.72,0,0
292452,88.4124,-541.537,0,0
293754,86.0635,-537.593,0,0
295056,83.4236,-533.353,0,0
296357,80.9173,-528.545,0,0
297659,79.0714,-523.327,0,0
298960.525,78.1191,-518.556,0,0
300262.15,76.9872,-514.566,0,0
301563.775,75.5013,-510.67,0,0
302865.4,74.0816,-506.511,0,0
304167.025,72.8604,-502.378,0,0
305468.65,71.8735,-498.533,0,0
306770.275,70.8261,-494.913,0,0
308071.9,69.5711,-491.349,0,0
309373.525,68.297,-487.693,0,0
310675.15,67.1713,-484.074,0,0
311976.775,66.1036,-480.502,0,0
313278.4,64.8859,-476.952,0,0
314580,63.8315,-473.345,0,0
315882,62.8365,-469.737,0,0
317183,61.8929,-466.233,0,0
318485,60.9031,-462.782,0,0
319787,60.0253,-459.254,0,0
321088,59.2577,-455.771,0,0
322390,58.5383,-452.362,0,0
323691,57.9176,-449.094,0,0
324993,57.1608,-445.881,0,0
326295,56.3941,-442.667,0,0
327596,55.7005,-439.405,0,0
328898,55.0281,-436.151,0,0
330200,54.4092,-432.829,0,0
331501.125,53.8808,-429.549,0,0
332802.75,53.437,-426.414,0,0
334104.375,53.0128,-423.278,0,0
335406.0,52.6849,-420.125,0,0
336707.625,52.3413,-417.116,0,0
338009.25,51.9516,-414.095,0,0
339310.875,51.6249,-411.092,0,0
340612.5,51.4154,-408.038,0,0
341914.125,51.2092,-405.058,0,0
343215.75,51.2332,-402.17,0,0
344517.375,51.158,-399.551,0,0
345819.0,50.8676,-396.812,0,0
347121,50.7164,-393.985,0,0
348422,50.6888,-391.193,0,0
349724,50.7628,-388.471,0,0
351025,50.8653,-385.865,0,0
352327,51.0147,-383.377,0,0
353629,51.1332,-381.067,0,0
354930,51.1503,-378.879,0,0
356232,51.0527,-376.682,0,0
357534,50.875,-374.454,0,0
358835,50.6628,-372.204,0,0
360137,50.4998,-369.984,0,0
361438,50.1777,-367.693,0,0
362740.1,49.8909,-365.33,0,0
364041.725,49.6221,-362.95,0,0
365343.35,49.5144,-360.5,0,0
366644.975,49.4166,-358.105,0,0
367946.6,49.3634,-355.814,0,0
369248.225,49.3015,-353.521,0,0
370549.85,49.2158,-351.194,0,0
371851.475,49.2451,-348.904,0,0
373153.1,49.3523,-346.773,0,0
374454.725,49.262,-344.872,0,0
375756.35,48.877,-342.871,0,0
377057.975,48.452,-340.624,0,0
378359.6,48.077,-338.255,0,0
379661,47.7789,-335.854,0,0
380963,47.5071,-333.286,0,0
382264,47.513,-330.611,0,0
383566,47.7603,-328.244,0,0
384868,47.6328,-326.156,0,0
386169,47.4574,-323.767,0,0
387471,47.2919,-321.296,0,0
388773,47.2219,-318.789,0,0
390074,47.1755,-316.284,0,0
391376,47.16,-313.746,0,0
392677,47.1497,-311.196,0,0
393979,47.1779,-308.601,0,0
395280.7,47.2332,-305.962,0,0
396582.325,47.3662,-303.282,0,0
397883.95,47.5323,-300.572,0,0
399185.575,47.7581,-297.827,0,0
400006.6,47.9533,-296.064,0,0