File: Accelerated corrosion test data/2025-10-12_18-00-03/sample_2.csv
Frequency (Hz),Impedance (ohms),Phase (Radians),Temperature (C),Humidity (%)
10000.0,239.996,-11299.6,0,0
11301.625,213.139,-10008.9,0,0
12603.25,191.545,-8985.76,0,0
13904.875,189.59,-8154.22,0,0
15206.5,167.765,-7467.54,0,0
16508.125,149.107,-6880.16,0,0
17809.75,138.004,-6378.25,0,0
19111.375,132.869,-5944.3,0,0
20413.0,122.682,-5565.83,0,0
21714.625,129.035,-5240.08,0,0
23016.25,115.57,-4947.07,0,0
24317.875,106.358,-4683.96,0,0
25619.5,100.689,-4443.37,0,0
26921.1,98.2378,-4227.83,0,0
28222.7,93.0151,-4030.91,0,0
29524.4,95.857,-3849.51,0,0
30826,89.9577,-3696.01,0,0
32127.6,84.1721,-3543.72,0,0
33429.2,82.2566,-3406.66,0,0
34730.9,77.8236,-3277.66,0,0
36032.5,75.2681,-3157.83,0,0
37334.1,73.1351,-3045.53,0,0
38635.7,70.8153,-2941.44,0,0
39937.4,68.8048,-2843.61,0,0
41239,67.5418,-2751.86,0,0
42540.6,66.3022,-2666.36,0,0
43842.225,64.5157,-2584.97,0,0
45143.85,63.4499,-2508.1,0,0
46445.475,62.6106,-2436.6,0,0
47747.1,62.0626,-2367.99,0,0
49048.725,62.1472,-2304.68,0,0
50350.35,59.3186,-2243.14,0,0
51651.975,58.0948,-2184.79,0,0
52953.6,56.408,-2128.13,0,0
54255.225,55.7675,-2074.02,0,0
55556.85,55.252,-2022.54,0,0
56858.475,55.1834,-1973.4,0,0
58160.1,55.3286,-1926.61,0,0
59461.7,55.7934,-1881.04,0,0
60763.3,57.4581,-1838.79,0,0
62065,59.9359,-1801.29,0,0
63366.6,56.582,-1764.86,0,0
64668.2,53.9314,-1726.96,0,0
65969.8,51.8727,-1687.9,0,0
67271.5,52.6035,-1651.1,0,0
68573.1,54.8629,-1617.62,0,0
69874.7,56.8976,-1588.17,0,0
71176.3,53.3389,-1559.77,0,0
72478,48.9163,-1529.54,0,0
73779.6,46.2777,-1496.91,0,0
75081.2,46.3854,-1464.88,0,0
76382.825,48.0504,-1434.82,0,0
77684.45,50.8826,-1406.9,0,0
78986.075,54.0395,-1383,0,0
80287.7,52.6685,-1361.48,0,0
81589.325,50.1668,-1336.77,0,0
82890.95,49.1951,-1311.16,0,0
84192.575,49.9386,-1286.6,0,0
85494.2,50.8864,-1263.3,0,0
86795.825,51.8058,-1241.58,0,0
88097.45,52.4743,-1220.71,0,0
89399.075,52.4861,-1199.56,0,0
90700.7,52.5699,-1179.43,0,0
92002.3,53.8896,-1158.55,0,0
93303.9,56.384,-1139.72,0,0
94605.6,57.0613,-1123.06,0,0
95907.2,56.3253,-1104.14,0,0
97208.8,59.487,-1088.01,0,0
98510.4,58.8079,-1074.26,0,0
99812.1,54.0809,-1059.44,0,0
101114,50.9164,-1042.15,0,0
102415,47.7976,-1021.87,0,0
103717,46.923,-1000.81,0,0
105019,50.3879,-980.789,0,0
106320.175,55.2946,-964.263,0,0
107621.8,58.0953,-952.288,0,0
108923.425,56.3974,-939.953,0,0
110225.05,53.5253,-924.26,0,0
111526.675,52.7096,-906.572,0,0
112828.3,53.5764,-889.307,0,0
114129.925,55.7166,-872.394,0,0
115431.55,58.9088,-856.512,0,0
116733.175,62.6786,-842.109,0,0
118034.8,66.3358,-829.394,0,0
119336.425,68.7877,-818.139,0,0
120638.05,69.6311,-807.728,0,0
121939.675,68.3174,-795.788,0,0
123241,67.1897,-782.004,0,0
124543,66.7873,-767.316,0,0
125845,67.7891,-752.148,0,0
127146,69.7348,-737.459,0,0
128448,72.2369,-723.642,0,0
129749,74.3003,-710.442,0,0
131051,76.3525,-696.959,0,0
132353,77.9358,-683.778,0,0
133654,79.6929,-669.249,0,0
134956,81.8507,-654.568,0,0
136258,85.0973,-639.268,0,0
137559,88.7975,-624.156,0,0
138860.775,92.9828,-608.937,0,0
140162.4,97.2883,-592.626,0,0
141464.025,104.301,-574.159,0,0
142765.65,115.292,-556.849,0,0
144067.275,127.921,-542.597,0,0
145368.9,141.224,-529.415,0,0
146670.525,156.167,-517.769,0,0
147972.15,173.377,-508.404,0,0
149273.775,193.79,-501.645,0,0
150575.4,217.078,-505.674,0,0
151877.025,229.541,-521.438,0,0
153178.65,227.929,-533.264,0,0
154480,220.114,-537.883,0,0
155782,213.703,-534.385,0,0
157084,208.372,-527.362,0,0
158385,207.334,-515.576,0,0
159687,212.233,-507.529,0,0
160988,214.095,-502.352,0,0
162290,219.314,-499.405,0,0
163592,214.535,-502.095,0,0
164893,202.628,-494.544,0,0
166195,192.606,-479.866,0,0
167497,187.564,-458.797,0,0
168798,188.101,-435.887,0,0
170100,192.06,-413.616,0,0
171401.375,197.781,-389.517,0,0
172703.0,209.456,-364.178,0,0
174004.625,226.36,-338.446,0,0
175306.25,252.808,-315.971,0,0
176607.875,281.101,-305.344,0,0
177909.5,308.741,-299.419,0,0
179211.125,327.522,-302.901,0,0
180512.75,334.223,-298.954,0,0
181814.375,342.74,-280.035,0,0
183116.0,363.284,-259.212,0,0
184417.625,391.346,-237.091,0,0
185719.25,431.226,-220.205,0,0
187021,472.481,-212.974,0,0
188322,518.511,-209.477,0,0
189624,560.803,-213.08,0,0
190926,610.449,-213.438,0,0
192227,672.848,-222.316,0,0
193529,745.123,-253.088,0,0
194831,806.496,-310.615,0,0
196132,848.759,-380.687,0,0
197434,877.06,-452.634,0,0
198735,895.245,-537.44,0,0
200037,890.457,-621.474,0,0
201339,864.488,-709.14,0,0
202640.35,813.709,-779.198,0,0
203941.975,750.726,-825.398,0,0
205243.6,692.329,-855.22,0,0
206545.225,632.136,-864.482,0,0
207846.85,589.895,-861.129,0,0
209148.475,559.994,-862.68,0,0
210450.1,524.385,-869.413,0,0
211751.725,485.242,-865.553,0,0
213053.35,455.693,-853.608,0,0
214354.975,431.61,-840.601,0,0
215656.6,412.629,-827.551,0,0
216958.225,397.796,-813.885,0,0
218259.85,387.797,-801.076,0,0
219561,381.842,-790.097,0,0
220863,378.581,-782.393,0,0
222165,378.426,-777.825,0,0
223466,377.985,-780.245,0,0
224768,372.885,-784.653,0,0
226070,366.1,-787.333,0,0
227371,361.547,-791.808,0,0
228673,354.773,-801.245,0,0
229974,340.743,-812.345,0,0
231276,321.453,-818.988,0,0
232578,300.823,-820.875,0,0
233879,280.504,-818.777,0,0
235180.95,261.58,-813.755,0,0
236482.575,244.179,-807.136,0,0
237784.2,227.657,-798.667,0,0
239085.825,212.989,-788.886,0,0
240387.45,200.065,-778.183,0,0
241689.075,188.642,-767.523,0,0
242990.7,178.672,-756.163,0,0
244292.325,169.64,-745.616,0,0
245593.95,161.134,-735.206,0,0
246895.575,151.688,-725.01,0,0
248197.2,142.43,-712.066,0,0
249498.825,135.126,-697.971,0,0
250800,129.377,-683.068,0,0
252102,126.34,-667.072,0,0
253404,125.635,-652.171,0,0
254705,126.29,-637.47,0,0
256007,129.569,-622.774,0,0
257309,135.794,-610.467,0,0
258610,142.61,-600.368,0,0
259912,150.82,-591.751,0,0
261213,160.356,-586.111,0,0
262515,169.589,-584.3,0,0
263817,176.841,-585.41,0,0
265118,180.753,-588.443,0,0
266420,180.753,-589.985,0,0
267721.55,180.682,-589.018,0,0
269023.175,180.675,-586.624,0,0
270324.8,182.828,-582.103,0,0
271626.425,188.928,-578.057,0,0
272928.05,198.364,-577.439,0,0
274229.675,209.741,-582.919,0,0
275531.3,218.354,-597.564,0,0
276832.925,214.982,-617.023,0,0
278134.55,202.269,-629.587,0,0
279436.175,188.723,-635.76,0,0
280737.8,174.646,-637.951,0,0
282039.425,161.755,-637.823,0,0
283341,147.36,-634.237,0,0
284643,137.317,-627.121,0,0
285944,125.943,-620.869,0,0
287246,115.136,-608.219,0,0
288548,110.443,-591.35,0,0
289849,115.708,-573.816,0,0
291151,129.063,-565.147,0,0
292452,141.627,-568.624,0,0
293754,142.783,-578.253,0,0
295056,137.851,-579.892,0,0
296357,139.446,-579.903,0,0
297659,137.046,-587.604,0,0
298960.525,128.495,-590.699,0,0
300262.15,120.166,-590.311,0,0
301563.775,112.845,-586.616,0,0
302865.4,109.273,-583.245,0,0
304167.025,105.281,-582.878,0,0
305468.65,97.9446,-582.248,0,0
306770.275,89.6897,-578.638,0,0
308071.9,82.6667,-572.691,0,0
309373.525,77.5736,-565.982,0,0
310675.15,73.5747,-559.622,0,0
311976.775,70.1348,-553.132,0,0
313278.4,67.674,-546.637,0,0
314580,65.7969,-540.633,0,0
315882,64.1118,-534.92,0,0
317183,62.9048,-529.293,0,0
318485,62.1719,-524.095,0,0
319787,61.3052,-519.554,0,0
321088,60.1928,-514.959,0,0
322390,58.916,-510.196,0,0
323691,57.51,-504.792,0,0
324993,57.1943,-498.191,0,0
326295,59.3403,-492.026,0,0
327596,62.4452,-488.775,0,0
328898,64.0592,-486.787,0,0
330200,65.0374,-485.127,0,0
331501.125,65.2424,-484.186,0,0
332802.75,64.0047,-483.447,0,0
334104.375,61.512,-481.482,0,0
335406.0,59.3367,-478.161,0,0
336707.625,57.5747,-474.43,0,0
338009.25,56.3512,-470.233,0,0
339310.875,55.5671,-465.91,0,0
340612.5,55.5211,-461.503,0,0
341914.125,55.7892,-457.386,0,0
343215.75,56.3776,-453.552,0,0
344517.375,57.1301,-449.882,0,0
345819.0,58.2799,-446.5,0,0
347121,59.4414,-443.597,0,0
348422,60.6279,-440.85,0,0
349724,61.9643,-438.279,0,0
351025,63.4581,-436.285,0,0
352327,64.6239,-434.804,0,0
353629,65.3779,-433.299,0,0
354930,66.0666,-431.758,0,0
356232,66.884,-430.218,0,0
357534,67.9719,-428.848,0,0
358835,69.2182,-428.336,0,0
360137,69.7957,-428.536,0,0
361438,69.459,-428.908,0,0
362740.1,68.3639,-429.002,0,0
364041.725,66.5674,-428.622,0,0
365343.35,64.636,-427.563,0,0
366644.975,62.7334,-425.608,0,0
367946.6,61.665,-423.112,0,0
369248.225,61.4571,-421.161,0,0
370549.85,60.9409,-420.084,0,0
371851.475,59.6981,-418.921,0,0
373153.1,58.5413,-417.287,0,0
374454.725,57.4042,-415.824,0,0
375756.35,55.9144,-414.314,0,0
377057.975,54.5088,-412.376,0,0
378359.6,53.2339,-410.787,0,0
379661,50.7469,-408.981,0,0
380963,48.8702,-405.065,0,0
382264,49.0734,-402.262,0,0
383566,48.2203,-400.555,0,0
384868,46.7109,-398.402,0,0
386169,45.1368,-395.647,0,0
387471,43.8716,-392.366,0,0
388773,43.1509,-388.82,0,0
390074,43.2302,-385.37,0,0
391376,43.7529,-382.87,0,0
392677,43.3735,-381.226,0,0
393979,42.0495,-378.958,0,0
395280.7,40.6822,-375.708,0,0
396582.325,40.0972,-371.923,0,0
397883.95,40.1109,-368.193,0,0
399185.575,40.5014,-364.738,0,0
400006.6,40.8485,-362.676,0,0