File: Accelerated corrosion test data/2025-10-12_18-00-03/sample_1.csv
Frequency (Hz),Impedance (ohms),Phase (Radians),Temperature (C),Humidity (%)
10000.0,247.557,-12072.4,0,0
11301.625,219.538,-10693.7,0,0
12603.25,199.449,-9605.92,0,0
13904.875,186.793,-8692.62,0,0
15206.5,189.582,-7969.2,0,0
16508.125,159.272,-7349.63,0,0
17809.75,149.072,-6821.49,0,0
19111.375,137.655,-6356.06,0,0
20413.0,161.057,-5920.62,0,0
21714.625,139.061,-5604.61,0,0
23016.25,124.648,-5304.94,0,0
24317.875,114.129,-5015.33,0,0
25619.5,107.08,-4754.85,0,0
26921.1,117.351,-4510.69,0,0
28222.7,112.225,-4306.54,0,0
29524.4,108.054,-4141.12,0,0
30826,102.682,-3957.6,0,0
32127.6,99.2089,-3800.26,0,0
33429.2,90.2363,-3658.44,0,0
34730.9,83.6471,-3518.11,0,0
36032.5,79.4157,-3388.62,0,0
37334.1,76.904,-3267.86,0,0
38635.7,74.2253,-3155.4,0,0
39937.4,72.5879,-3050.08,0,0
41239,73.3555,-2952.38,0,0
42540.6,71.6439,-2860.92,0,0
43842.225,69.0492,-2774.46,0,0
45143.85,69.554,-2693.91,0,0
46445.475,66.4957,-2618.67,0,0
47747.1,64.9733,-2545.56,0,0
49048.725,62.7014,-2476.1,0,0
50350.35,60.8873,-2410.26,0,0
51651.975,59.9762,-2347.42,0,0
52953.6,58.8659,-2287.11,0,0
54255.225,57.9011,-2230.7,0,0
55556.85,56.9884,-2175.97,0,0
56858.475,55.9016,-2123.43,0,0
58160.1,55.7794,-2073.33,0,0
59461.7,55.5806,-2025.89,0,0
60763.3,55.7101,-1980.64,0,0
62065,53.9755,-1937.01,0,0
63366.6,53.4104,-1893.88,0,0
64668.2,54.0299,-1852.13,0,0
65969.8,56.1143,-1814.81,0,0
67271.5,54.8335,-1778.35,0,0
68573.1,54.3551,-1743.25,0,0
69874.7,53.0747,-1709.95,0,0
71176.3,51.319,-1675.62,0,0
72478,49.3868,-1642.14,0,0
73779.6,49.0179,-1609,0,0
75081.2,49.4433,-1577.11,0,0
76382.825,50.36,-1546.34,0,0
77684.45,51.2451,-1517.34,0,0
78986.075,52.8569,-1490.12,0,0
80287.7,52.1228,-1463.82,0,0
81589.325,51.7646,-1436.1,0,0
82890.95,52.5452,-1409.51,0,0
84192.575,54.124,-1383.76,0,0
85494.2,56.4851,-1359.7,0,0
86795.825,57.3326,-1336.79,0,0
88097.45,57.5656,-1313.84,0,0
89399.075,59.4768,-1289.49,0,0
90700.7,62.9531,-1266.33,0,0
92002.3,69.203,-1246.18,0,0
93303.9,76.0703,-1229.89,0,0
94605.6,73.7924,-1222.21,0,0
95907.2,66.628,-1203.42,0,0
97208.8,64.5239,-1182.68,0,0
98510.4,64.6104,-1162.23,0,0
99812.1,63.9049,-1142.38,0,0
101114,64.1893,-1122.86,0,0
102415,64.1369,-1101.16,0,0
103717,69.4145,-1080.09,0,0
105019,76.4354,-1063.11,0,0
106320.175,83.6553,-1047.62,0,0
107621.8,89.9949,-1036.44,0,0
108923.425,94.1715,-1026.78,0,0
110225.05,94.3638,-1019.64,0,0
111526.675,93.5448,-1007.3,0,0
112828.3,93.973,-997.198,0,0
114129.925,91.8617,-988.262,0,0
115431.55,87.9793,-977.342,0,0
116733.175,83.7702,-963.695,0,0
118034.8,80.6652,-948.404,0,0
119336.425,80.0693,-932.632,0,0
120638.05,81.3583,-918.561,0,0
121939.675,80.8312,-906.423,0,0
123241,79.5573,-892.509,0,0
124543,79.775,-877.523,0,0
125845,80.9682,-863.232,0,0
127146,82.6703,-849.582,0,0
128448,84.8488,-835.787,0,0
129749,87.3861,-822.064,0,0
131051,92.2927,-809.946,0,0
132353,95.5827,-800.405,0,0
133654,97.6827,-790.135,0,0
134956,99.259,-779.708,0,0
136258,101.49,-768.333,0,0
137559,105.696,-758.216,0,0
138860.775,107.616,-750.853,0,0
140162.4,108.023,-741.765,0,0
141464.025,108.591,-731.517,0,0
142765.65,109.666,-721.065,0,0
144067.275,110.88,-710.175,0,0
145368.9,112.918,-699.142,0,0
146670.525,115.213,-688.501,0,0
147972.15,117.09,-678.855,0,0
149273.775,119.901,-667.696,0,0
150575.4,121.121,-659.065,0,0
151877.025,120.97,-646.522,0,0
153178.65,122.351,-631.166,0,0
154480,127.753,-614.889,0,0
155782,136.39,-599.045,0,0
157084,148.788,-585.297,0,0
158385,161.735,-576.468,0,0
159687,173.089,-566.044,0,0
160988,192.067,-557.67,0,0
162290,210.433,-560.695,0,0
163592,221.507,-564.755,0,0
164893,231.433,-569.013,0,0
166195,240.834,-577.674,0,0
167497,242.361,-588.73,0,0
168798,236.959,-598.155,0,0
170100,226.531,-599.768,0,0
171401.375,219.904,-594.989,0,0
172703.0,215.376,-589.626,0,0
174004.625,212.393,-582.496,0,0
175306.25,212.021,-575.671,0,0
176607.875,213.239,-571.357,0,0
177909.5,212.738,-568.405,0,0
179211.125,208.746,-565.52,0,0
180512.75,203.195,-560.681,0,0
181814.375,197.323,-551.996,0,0
183116.0,191.576,-541.817,0,0
184417.625,186.914,-526.893,0,0
185719.25,187.16,-510.384,0,0
187021,189.969,-495.086,0,0
188322,193.982,-480.65,0,0
189624,198.375,-466.334,0,0
190926,203.649,-451.047,0,0
192227,210.291,-434.247,0,0
193529,219.799,-417.476,0,0
194831,230.454,-399.767,0,0
196132,244.925,-381.146,0,0
197434,264.193,-362.341,0,0
198735,288.394,-346.458,0,0
200037,313.034,-333.614,0,0
201339,343.372,-319.2,0,0
202640.35,383.374,-309.888,0,0
203941.975,428.1,-310.894,0,0
205243.6,477.771,-329.664,0,0
206545.225,513.397,-364.358,0,0
207846.85,532.045,-404.244,0,0
209148.475,537.27,-439.071,0,0
210450.1,531.915,-466.012,0,0
211751.725,525.363,-477.743,0,0
213053.35,529.04,-478.954,0,0
214354.975,543.511,-487.795,0,0
215656.6,557.95,-501.087,0,0
216958.225,570.398,-516.208,0,0
218259.85,589.501,-532.755,0,0
219561,609.842,-556.078,0,0
220863,631.168,-589.453,0,0
222165,648.204,-637.528,0,0
223466,645.728,-695.185,0,0
224768,628.32,-748.276,0,0
226070,598.415,-796.239,0,0
227371,557.57,-836.293,0,0
228673,507.738,-862.487,0,0
229974,458.926,-872.364,0,0
231276,416.244,-871.622,0,0
232578,381.98,-865.093,0,0
233879,353.581,-859.062,0,0
235180.95,326.727,-852.391,0,0
236482.575,301.937,-843.683,0,0
237784.2,279.593,-833.258,0,0
239085.825,259.798,-822.393,0,0
240387.45,241.969,-810.162,0,0
241689.075,226.205,-797.901,0,0
242990.7,212.904,-785.246,0,0
244292.325,201.152,-773.36,0,0
245593.95,189.678,-761.739,0,0
246895.575,178.979,-749.486,0,0
248197.2,169.963,-736.522,0,0
249498.825,162.471,-723.859,0,0
250800,155.868,-711.407,0,0
252102,150.299,-698.942,0,0
253404,145.736,-686.307,0,0
254705,142.702,-673.488,0,0
256007,141.32,-661.708,0,0
257309,140.491,-650.214,0,0
258610,140.687,-638.634,0,0
259912,143.476,-627.295,0,0
261213,148.479,-618.077,0,0
262515,154.409,-611.922,0,0
263817,160.214,-608.162,0,0
265118,165.926,-606.874,0,0
266420,170.521,-610.095,0,0
267721.55,169.013,-616.094,0,0
269023.175,161.355,-619.192,0,0
270324.8,152.173,-616.393,0,0
271626.425,144.986,-609.395,0,0
272928.05,141.324,-600.539,0,0
274229.675,141.098,-592.221,0,0
275531.3,142.383,-585.999,0,0
276832.925,144.279,-580.916,0,0
278134.55,146.896,-578.299,0,0
279436.175,147.998,-577.413,0,0
280737.8,147.228,-577.23,0,0
282039.425,144.745,-577.032,0,0
283341,140.631,-575.203,0,0
284643,136.333,-571.598,0,0
285944,132.782,-567.012,0,0
287246,128.885,-561.124,0,0
288548,126.789,-552.792,0,0
289849,128.473,-545.193,0,0
291151,130.754,-540.03,0,0
292452,132.602,-536.29,0,0
293754,132.563,-532.531,0,0
295056,132.849,-525.857,0,0
296357,136.935,-518.957,0,0
297659,142.526,-514.747,0,0
298960.525,148.281,-512.043,0,0
300262.15,153.927,-510.763,0,0
301563.775,160.308,-509.958,0,0
302865.4,167.298,-512.172,0,0
304167.025,172.51,-516.618,0,0
305468.65,176.09,-522.164,0,0
306770.275,178.419,-528.786,0,0
308071.9,178.284,-536.502,0,0
309373.525,175.605,-543.323,0,0
310675.15,172.456,-549.583,0,0
311976.775,166.829,-556.669,0,0
313278.4,158.322,-561.588,0,0
314580,149.043,-563.263,0,0
315882,140.846,-563.245,0,0
317183,132.883,-562.041,0,0
318485,125.382,-559.849,0,0
319787,118.317,-556.644,0,0
321088,112.085,-552.414,0,0
322390,106.783,-547.484,0,0
323691,102.655,-542.037,0,0
324993,100.082,-536.707,0,0
326295,98.4687,-532.124,0,0
327596,97.4552,-528.572,0,0
328898,96.4487,-526.085,0,0
330200,94.8899,-524.435,0,0
331501.125,92.2525,-523.122,0,0
332802.75,88.8717,-521.309,0,0
334104.375,85.1743,-519.07,0,0
335406.0,81.2423,-515.998,0,0
336707.625,77.6505,-512.202,0,0
338009.25,74.6582,-508.212,0,0
339310.875,71.8436,-504.099,0,0
340612.5,69.5065,-499.852,0,0
341914.125,67.2957,-495.726,0,0
343215.75,65.2084,-491.622,0,0
344517.375,63.2056,-487.418,0,0
345819.0,61.3232,-482.97,0,0
347121,59.6733,-478.397,0,0
348422,58.4457,-473.593,0,0
349724,57.683,-468.92,0,0
351025,57.2072,-464.245,0,0
352327,57.1054,-459.934,0,0
353629,57.0736,-455.885,0,0
354930,57.0737,-451.996,0,0
356232,57.2815,-448.013,0,0
357534,57.6483,-444.381,0,0
358835,57.9676,-440.941,0,0
360137,58.3202,-437.591,0,0
361438,58.6566,-434.42,0,0
362740.1,58.9642,-431.076,0,0
364041.725,59.4506,-427.827,0,0
365343.35,59.9464,-424.697,0,0
366644.975,60.2449,-421.44,0,0
367946.6,60.4092,-417.903,0,0
369248.225,61.3317,-413.414,0,0
370549.85,63.8355,-409.118,0,0
371851.475,67.2291,-406.02,0,0
373153.1,70.7868,-404.192,0,0
374454.725,74.0306,-403.79,0,0
375756.35,76.1085,-404.013,0,0
377057.975,77.6366,-404.106,0,0
378359.6,78.9285,-404.378,0,0
379661,79.6477,-404.977,0,0
380963,80.4571,-405.318,0,0
382264,80.8223,-407.101,0,0
383566,79.417,-408.898,0,0
384868,76.834,-409.642,0,0
386169,73.8569,-409.377,0,0
387471,70.7767,-407.849,0,0
388773,68.534,-405.374,0,0
390074,67.2176,-402.893,0,0
391376,66.1783,-400.867,0,0
392677,65.0115,-399.223,0,0
393979,63.2504,-397.524,0,0
395280.7,61.2264,-395.157,0,0
396582.325,59.5396,-392.112,0,0
397883.95,58.3106,-388.84,0,0
399185.575,57.3556,-385.473,0,0
400006.6,56.916,-383.269,0,0