File: Accelerated corrosion test data/2025-10-01_18-00-03/sample_6.csv
Frequency (Hz),Impedance (ohms),Phase (Radians),Temperature (C),Humidity (%)
10000.0,4320.38,-6168.9,0,0
11301.625,3705.57,-5855.47,0,0
12603.25,3208.2,-5542.89,0,0
13904.875,2803.09,-5253.46,0,0
15206.5,2467.59,-4976.21,0,0
16508.125,2188.69,-4718.79,0,0
17809.75,1954.07,-4480.62,0,0
19111.375,1758.06,-4259.9,0,0
20413.0,1587.17,-4059.11,0,0
21714.625,1441.03,-3871.7,0,0
23016.25,1318.68,-3693.79,0,0
24317.875,1208.67,-3541.73,0,0
25619.5,1111.79,-3393.69,0,0
26921.1,1026.79,-3255.3,0,0
28222.7,953.326,-3129.09,0,0
29524.4,886.198,-3007.3,0,0
30826,829.463,-2895.47,0,0
32127.6,778.449,-2789.09,0,0
33429.2,739.289,-2695.07,0,0
34730.9,695.34,-2611.16,0,0
36032.5,654.698,-2531.43,0,0
37334.1,613.896,-2451.02,0,0
38635.7,579.351,-2372.6,0,0
39937.4,550.409,-2298.87,0,0
41239,523.786,-2230.73,0,0
42540.6,499.408,-2166.45,0,0
43842.225,477.608,-2101.31,0,0
45143.85,459.767,-2040.03,0,0
46445.475,447.739,-1986.03,0,0
47747.1,436.167,-1936.91,0,0
49048.725,426.886,-1895.84,0,0
50350.35,406.239,-1862.19,0,0
51651.975,382.99,-1818.23,0,0
52953.6,366.226,-1775.24,0,0
54255.225,348.358,-1734.64,0,0
55556.85,331.056,-1694.91,0,0
56858.475,317.158,-1648.62,0,0
58160.1,311.777,-1611.36,0,0
59461.7,301.363,-1579.36,0,0
60763.3,288.527,-1546.35,0,0
62065,275.038,-1510.62,0,0
63366.6,271.036,-1473.29,0,0
64668.2,263.505,-1448.29,0,0
65969.8,254.258,-1418.95,0,0
67271.5,242.867,-1390,0,0
68573.1,233.155,-1358.23,0,0
69874.7,225.97,-1326.1,0,0
71176.3,221.859,-1294.71,0,0
72478,220.181,-1265.58,0,0
73779.6,220.167,-1239.57,0,0
75081.2,219.04,-1216.08,0,0
76382.825,217.459,-1194.04,0,0
77684.45,215.722,-1171.67,0,0
78986.075,215.179,-1150.89,0,0
80287.7,214.514,-1132.34,0,0
81589.325,212.511,-1115.16,0,0
82890.95,209.093,-1098.36,0,0
84192.575,204.358,-1080.61,0,0
85494.2,200.883,-1061.04,0,0
86795.825,199.528,-1042.46,0,0
88097.45,197.698,-1025.7,0,0
89399.075,196.167,-1008.73,0,0
90700.7,195.564,-992.904,0,0
92002.3,192.612,-977.729,0,0
93303.9,191.512,-961.884,0,0
94605.6,191.176,-944.926,0,0
95907.2,191.832,-932.543,0,0
97208.8,189.797,-920.661,0,0
98510.4,188.325,-903.769,0,0
99812.1,194.775,-892.703,0,0
101114,191.891,-887.833,0,0
102415,187.994,-876.706,0,0
103717,184.166,-870.843,0,0
105019,171.801,-862.096,0,0
106320.175,159.851,-842.116,0,0
107621.8,157.445,-818.946,0,0
108923.425,160.288,-800.985,0,0
110225.05,162.596,-785.718,0,0
111526.675,165.79,-770.891,0,0
112828.3,169.938,-758.621,0,0
114129.925,173.855,-748.312,0,0
115431.55,177.011,-738.423,0,0
116733.175,180.446,-731.687,0,0
118034.8,178.042,-724.825,0,0
119336.425,177.896,-712.616,0,0
120638.05,185.423,-701.58,0,0
121939.675,186.981,-702.895,0,0
123241,182.213,-697.096,0,0
124543,179.267,-689.864,0,0
125845,175.802,-681.421,0,0
127146,172.243,-672.068,0,0
128448,171.256,-660.304,0,0
129749,173.614,-652.338,0,0
131051,173.204,-646.723,0,0
132353,170.608,-641.525,0,0
133654,165.685,-635.701,0,0
134956,159.365,-627.023,0,0
136258,153.629,-615.908,0,0
137559,149.398,-603.354,0,0
138860.775,146.567,-590.109,0,0
140162.4,145.017,-576.542,0,0
141464.025,145.2,-563.084,0,0
142765.65,145.606,-550.295,0,0
144067.275,147.955,-537.02,0,0
145368.9,151.22,-526.936,0,0
146670.525,151.784,-517.833,0,0
147972.15,151.171,-507.099,0,0
149273.775,150.712,-494.318,0,0
150575.4,151.532,-479.43,0,0
151877.025,155.763,-462.71,0,0
153178.65,166.326,-450.085,0,0
154480,172.015,-442.195,0,0
155782,178.281,-430.55,0,0
157084,188.903,-423.513,0,0
158385,193.74,-420.151,0,0
159687,196.467,-414.581,0,0
160988,198.682,-407.86,0,0
162290,200.357,-400.733,0,0
163592,201.876,-392.566,0,0
164893,201.802,-382.63,0,0
166195,204.671,-370.44,0,0
167497,208.382,-358.989,0,0
168798,212.992,-347.212,0,0
170100,218.086,-336.187,0,0
171401.375,222.41,-324.518,0,0
172703.0,227.254,-312.057,0,0
174004.625,231.888,-298.701,0,0
175306.25,237.192,-282.829,0,0
176607.875,244.721,-264.956,0,0
177909.5,255.327,-245.574,0,0
179211.125,269.752,-225.096,0,0
180512.75,289.52,-206.63,0,0
181814.375,311.626,-191.517,0,0
183116.0,334.713,-180.011,0,0
184417.625,357.91,-170.41,0,0
185719.25,378.97,-164.742,0,0
187021,394.54,-156.756,0,0
188322,408.537,-139.3,0,0
189624,430.502,-111.668,0,0
190926,470.179,-78.4849,0,0
192227,527.557,-54.5719,0,0
193529,594.413,-41.1662,0,0
194831,674.52,-41.9906,0,0
196132,758.967,-65.7618,0,0
197434,839.001,-110.036,0,0
198735,912.637,-169.829,0,0
200037,977.252,-249.95,0,0
201339,1027.19,-347.48,0,0
202640.35,1051.35,-467.677,0,0
203941.975,1033.06,-585.624,0,0
205243.6,989.273,-685.458,0,0
206545.225,928.033,-764.51,0,0
207846.85,860.534,-820.128,0,0
209148.475,796.123,-857.498,0,0
210450.1,738.647,-885.003,0,0
211751.725,682.681,-913.284,0,0
213053.35,615.862,-932.199,0,0
214354.975,550.598,-933.399,0,0
215656.6,493.976,-922.531,0,0
216958.225,447.007,-906.386,0,0
218259.85,407.337,-887.267,0,0
219561,374.274,-866.408,0,0
220863,346.225,-845.514,0,0
222165,322.217,-823.803,0,0
223466,302.444,-800.971,0,0
224768,287.862,-777.696,0,0
226070,279.257,-755.105,0,0
227371,276.75,-736.949,0,0
228673,275.853,-726.981,0,0
229974,269.817,-721.764,0,0
231276,259.107,-715.132,0,0
232578,247.312,-704.481,0,0
233879,237.449,-690.799,0,0
235180.95,230.607,-676.126,0,0
236482.575,226.364,-661.591,0,0
237784.2,224.112,-647.673,0,0
239085.825,223.614,-634.509,0,0
240387.45,224.639,-622.503,0,0
241689.075,226.801,-611.23,0,0
242990.7,230.335,-600.826,0,0
244292.325,235.229,-591.566,0,0
245593.95,241.218,-583.254,0,0
246895.575,249.279,-575.593,0,0
248197.2,260.548,-570.858,0,0
249498.825,272.153,-571.319,0,0
250800,280.915,-573.839,0,0
252102,292.1,-576.402,0,0
253404,305.828,-585.665,0,0
254705,315.687,-603.757,0,0
256007,316.077,-626.665,0,0
257309,307.228,-647.662,0,0
258610,292.518,-664.049,0,0
259912,274.404,-675.314,0,0
261213,255.095,-681.146,0,0
262515,236.466,-682.224,0,0
263817,219.868,-680.419,0,0
265118,204.693,-676.963,0,0
266420,191.279,-671.7,0,0
267721.55,179.208,-665.662,0,0
269023.175,168.687,-659.125,0,0
270324.8,159.097,-652.473,0,0
271626.425,150.397,-645.574,0,0
272928.05,142.48,-638.338,0,0
274229.675,135.104,-630.933,0,0
275531.3,128.58,-623.33,0,0
276832.925,122.778,-615.657,0,0
278134.55,117.601,-607.9,0,0
279436.175,113.111,-599.861,0,0
280737.8,109.969,-591.875,0,0
282039.425,107.748,-584.99,0,0
283341,105.349,-578.723,0,0
284643,103.183,-572.527,0,0
285944,101.55,-566.552,0,0
287246,100.157,-561.566,0,0
288548,98.2192,-556.611,0,0
289849,96.6698,-551.67,0,0
291151,95.2795,-547.118,0,0
292452,93.9834,-542.965,0,0
293754,92.4734,-539.46,0,0
295056,90.1,-536.2,0,0
296357,86.968,-532.295,0,0
297659,83.7589,-527.126,0,0
298960.525,81.994,-520.983,0,0
300262.15,81.5736,-515.813,0,0
301563.775,81.1717,-511.56,0,0
302865.4,80.3943,-507.689,0,0
304167.025,79.4171,-503.693,0,0
305468.65,78.799,-499.368,0,0
306770.275,79.2002,-495.764,0,0
308071.9,78.984,-493.414,0,0
309373.525,77.8792,-491.028,0,0
310675.15,76.6078,-488.379,0,0
311976.775,75.1211,-485.685,0,0
313278.4,73.4389,-482.765,0,0
314580,71.8978,-479.569,0,0
315882,70.5296,-476.363,0,0
317183,69.1074,-473.259,0,0
318485,67.6965,-470.209,0,0
319787,66.1412,-467.01,0,0
321088,64.5467,-463.645,0,0
322390,63.2663,-459.997,0,0
323691,62.2776,-456.561,0,0
324993,61.2727,-453.282,0,0
326295,60.1734,-449.92,0,0
327596,59.1467,-446.541,0,0
328898,58.258,-443.182,0,0
330200,57.4384,-439.805,0,0
331501.125,56.5965,-436.447,0,0
332802.75,55.924,-433.087,0,0
334104.375,55.3067,-429.681,0,0
335406.0,54.8378,-426.383,0,0
336707.625,54.4685,-423.215,0,0
338009.25,54.078,-420.054,0,0
339310.875,53.7252,-416.974,0,0
340612.5,53.4886,-413.882,0,0
341914.125,53.3808,-410.765,0,0
343215.75,53.5309,-407.904,0,0
344517.375,53.5708,-405.676,0,0
345819.0,52.8823,-403.309,0,0
347121,52.2573,-400.463,0,0
348422,51.9071,-397.51,0,0
349724,51.703,-394.643,0,0
351025,51.5755,-391.805,0,0
352327,51.6278,-389.059,0,0
353629,51.6929,-386.546,0,0
354930,51.6088,-384.153,0,0
356232,51.4966,-381.69,0,0
357534,51.4218,-379.143,0,0
358835,51.5549,-376.732,0,0
360137,51.5972,-374.588,0,0
361438,51.4589,-372.525,0,0
362740.1,51.1294,-370.378,0,0
364041.725,50.7925,-368.092,0,0
365343.35,50.5131,-365.73,0,0
366644.975,50.3054,-363.316,0,0
367946.6,50.1625,-360.973,0,0
369248.225,50.0173,-358.537,0,0
370549.85,50.0039,-356.112,0,0
371851.475,50.1482,-353.802,0,0
373153.1,50.4301,-351.71,0,0
374454.725,50.5201,-350.099,0,0
375756.35,50.046,-348.411,0,0
377057.975,49.4813,-346.367,0,0
378359.6,48.946,-344.224,0,0
379661,48.3353,-341.979,0,0
380963,47.6708,-339.406,0,0
382264,47.3679,-336.544,0,0
383566,47.7467,-333.927,0,0
384868,47.7327,-331.997,0,0
386169,47.3732,-329.759,0,0
387471,46.9808,-327.344,0,0
388773,46.6869,-324.769,0,0
390074,46.5148,-322.159,0,0
391376,46.4404,-319.512,0,0
392677,46.4206,-316.888,0,0
393979,46.4273,-314.256,0,0
395280.7,46.486,-311.574,0,0
396582.325,46.6094,-308.866,0,0
397883.95,46.8009,-306.138,0,0
399185.575,47.0735,-303.449,0,0
400006.6,47.2231,-301.757,0,0