File: Accelerated corrosion test data/2025-10-01_18-00-03/sample_4.csv
Frequency (Hz),Impedance (ohms),Phase (Radians),Temperature (C),Humidity (%)
10000.0,268.415,-11720.4,0,0
11301.625,239.136,-10384,0,0
12603.25,216.69,-9316.69,0,0
13904.875,196.838,-8447.51,0,0
15206.5,185.055,-7732.71,0,0
16508.125,188.558,-7126.01,0,0
17809.75,158.968,-6624.18,0,0
19111.375,148.274,-6174.1,0,0
20413.0,143.258,-5779.39,0,0
21714.625,145.202,-5436.92,0,0
23016.25,127.675,-5141.41,0,0
24317.875,119.149,-4860.74,0,0
25619.5,115.236,-4611.07,0,0
26921.1,108.916,-4385.03,0,0
28222.7,122.034,-4181.48,0,0
29524.4,114.4,-4006.66,0,0
30826,100.916,-3837.13,0,0
32127.6,100.778,-3679.46,0,0
33429.2,91.9735,-3539.3,0,0
34730.9,86.9245,-3403.18,0,0
36032.5,83.8457,-3277.43,0,0
37334.1,81.5934,-3160.19,0,0
38635.7,79.2633,-3049.76,0,0
39937.4,78.8072,-2945.46,0,0
41239,81.4325,-2851.38,0,0
42540.6,80.242,-2766.59,0,0
43842.225,75.4539,-2682.79,0,0
45143.85,72.7123,-2602.54,0,0
46445.475,72.1053,-2526.24,0,0
47747.1,71.4062,-2457.45,0,0
49048.725,67.5937,-2389,0,0
50350.35,66.2944,-2322.48,0,0
51651.975,66.0293,-2258.61,0,0
52953.6,68.2757,-2196.69,0,0
54255.225,75.6568,-2141.02,0,0
55556.85,73.2695,-2097.74,0,0
56858.475,67.4917,-2044.99,0,0
58160.1,68.6234,-1993.18,0,0
59461.7,73.4268,-1943.35,0,0
60763.3,83.4161,-1907.34,0,0
62065,71.7873,-1874.04,0,0
63366.6,66.7571,-1828.38,0,0
64668.2,66.576,-1785.91,0,0
65969.8,69.0692,-1746.03,0,0
67271.5,72.5511,-1711.03,0,0
68573.1,74.5925,-1683.44,0,0
69874.7,66.8158,-1652.05,0,0
71176.3,66.5698,-1618.15,0,0
72478,60.4636,-1587.11,0,0
73779.6,59.3555,-1551.15,0,0
75081.2,61.5592,-1519.23,0,0
76382.825,63.4576,-1491.18,0,0
77684.45,66.2198,-1463.67,0,0
78986.075,64.1938,-1441.14,0,0
80287.7,61.3217,-1414.17,0,0
81589.325,60.5517,-1388.31,0,0
82890.95,59.4414,-1363.12,0,0
84192.575,58.4717,-1338.38,0,0
85494.2,57.9434,-1314.2,0,0
86795.825,57.5846,-1290.83,0,0
88097.45,56.2786,-1269.02,0,0
89399.075,54.548,-1244.91,0,0
90700.7,54.3376,-1221.98,0,0
92002.3,54.6825,-1199.08,0,0
93303.9,55.5089,-1178.37,0,0
94605.6,54.4148,-1157.3,0,0
95907.2,54.5984,-1134.94,0,0
97208.8,55.7525,-1113.59,0,0
98510.4,57.3516,-1092.4,0,0
99812.1,60.4309,-1072.05,0,0
101114,65.5322,-1054.34,0,0
102415,63.8077,-1040.43,0,0
103717,60.9211,-1017.78,0,0
105019,65.63,-994.396,0,0
106320.175,72.552,-974.97,0,0
107621.8,79.5988,-957.917,0,0
108923.425,88.1684,-942.643,0,0
110225.05,95.7754,-931.131,0,0
111526.675,101.429,-921.334,0,0
112828.3,105.43,-912.637,0,0
114129.925,107.472,-904.746,0,0
115431.55,107.6,-897.043,0,0
116733.175,105.279,-888.357,0,0
118034.8,101.422,-876.24,0,0
119336.425,102.384,-860.417,0,0
120638.05,107.558,-855.087,0,0
121939.675,100.262,-847.229,0,0
123241,95.5544,-834.407,0,0
124543,92.2896,-821.339,0,0
125845,89.6737,-807.783,0,0
127146,86.6551,-795,0,0
128448,83.2318,-781.382,0,0
129749,78.7468,-766.142,0,0
131051,75.6017,-748.705,0,0
132353,74.1915,-730.542,0,0
133654,74.2272,-712.158,0,0
134956,75.5162,-693.695,0,0
136258,78.1181,-675.841,0,0
137559,81.4565,-658.987,0,0
138860.775,83.5379,-641.614,0,0
140162.4,86.9649,-623.006,0,0
141464.025,92.1759,-604.182,0,0
142765.65,98.2321,-585.715,0,0
144067.275,105.458,-566.915,0,0
145368.9,114.484,-548.215,0,0
146670.525,125.019,-530.078,0,0
147972.15,136.77,-512.416,0,0
149273.775,150.597,-494.466,0,0
150575.4,167.536,-477.881,0,0
151877.025,187.823,-464.242,0,0
153178.65,209.792,-455.388,0,0
154480,229.063,-452.616,0,0
155782,243.704,-449.074,0,0
157084,257.96,-444.61,0,0
158385,275.458,-437.901,0,0
159687,298.213,-438.187,0,0
160988,314.797,-447.292,0,0
162290,319.776,-454.372,0,0
163592,326.054,-451.896,0,0
164893,339.642,-446.671,0,0
166195,357.724,-446.876,0,0
167497,381.928,-453.158,0,0
168798,402.998,-477.61,0,0
170100,407.09,-508.72,0,0
171401.375,392.34,-540.243,0,0
172703.0,362.964,-554.591,0,0
174004.625,332.321,-549.57,0,0
175306.25,310.603,-532.372,0,0
176607.875,299.181,-509.526,0,0
177909.5,297.051,-487.121,0,0
179211.125,298.794,-468.038,0,0
180512.75,302.402,-449.784,0,0
181814.375,307.387,-431.531,0,0
183116.0,313.681,-411.932,0,0
184417.625,323.678,-390.004,0,0
185719.25,338.315,-367.231,0,0
187021,358.897,-344.853,0,0
188322,385.239,-324.315,0,0
189624,417.598,-307.012,0,0
190926,456.379,-295.034,0,0
192227,499.279,-291.825,0,0
193529,542.162,-297.786,0,0
194831,583.008,-309.873,0,0
196132,622.796,-327.142,0,0
197434,663.514,-349.984,0,0
198735,704.05,-384.178,0,0
200037,736.58,-431.361,0,0
201339,754.148,-485.06,0,0
202640.35,756.924,-536.449,0,0
203941.975,752.539,-578.299,0,0
205243.6,747.484,-618.448,0,0
206545.225,739.64,-659.653,0,0
207846.85,725.276,-704.294,0,0
209148.475,694.031,-745.058,0,0
210450.1,656.107,-767.765,0,0
211751.725,622.733,-778.167,0,0
213053.35,598.001,-778.613,0,0
214354.975,586.147,-778.205,0,0
215656.6,582.84,-787.892,0,0
216958.225,574.56,-808.258,0,0
218259.85,557.839,-830.131,0,0
219561,536.237,-848.332,0,0
220863,510.818,-866.756,0,0
222165,478.871,-880.873,0,0
223466,445.327,-886.274,0,0
224768,412.77,-887.004,0,0
226070,380.522,-883.223,0,0
227371,350.289,-873.079,0,0
228673,323.642,-859.297,0,0
229974,301.461,-841.46,0,0
231276,285.612,-821.832,0,0
232578,275.027,-803.949,0,0
233879,267.703,-787.452,0,0
235180.95,263.309,-773.756,0,0
236482.575,259.917,-763.042,0,0
237784.2,256.492,-753.703,0,0
239085.825,253.834,-746.228,0,0
240387.45,250.234,-740.872,0,0
241689.075,244.713,-736.514,0,0
242990.7,237.659,-730.872,0,0
244292.325,230.868,-723.935,0,0
245593.95,224.119,-716.448,0,0
246895.575,218.726,-707.745,0,0
248197.2,214.813,-700.27,0,0
249498.825,209.192,-694.017,0,0
250800,202.785,-686.298,0,0
252102,194.871,-677.957,0,0
253404,185.802,-664.424,0,0
254705,181.652,-646.692,0,0
256007,181.914,-628.304,0,0
257309,187.694,-609.276,0,0
258610,198.651,-592.714,0,0
259912,214.849,-579.522,0,0
261213,235.406,-572.867,0,0
262515,256.198,-574.864,0,0
263817,274.517,-584.368,0,0
265118,288.144,-598.714,0,0
266420,295.262,-619.69,0,0
267721.55,290.48,-640.217,0,0
269023.175,280.569,-654.635,0,0
270324.8,266.097,-663.888,0,0
271626.425,255.551,-665.519,0,0
272928.05,248.681,-669.964,0,0
274229.675,238.555,-676.609,0,0
275531.3,222.505,-682.023,0,0
276832.925,202.929,-679.598,0,0
278134.55,186.62,-668.99,0,0
279436.175,177.287,-654.703,0,0
280737.8,174.999,-642.504,0,0
282039.425,173.741,-634.482,0,0
283341,172.95,-625.849,0,0
284643,174.935,-620.7,0,0
285944,174.767,-617.906,0,0
287246,171.371,-614.946,0,0
288548,167.706,-605.702,0,0
289849,172.727,-594.552,0,0
291151,184.086,-590.56,0,0
292452,194.841,-595.507,0,0
293754,200.2,-607.178,0,0
295056,195.831,-621.202,0,0
296357,183.756,-629.63,0,0
297659,170.518,-631.035,0,0
298960.525,159.996,-628.214,0,0
300262.15,151.469,-624.823,0,0
301563.775,143.473,-620.63,0,0
302865.4,136.362,-614.94,0,0
304167.025,130.973,-608.525,0,0
305468.65,127.193,-602.079,0,0
306770.275,125.199,-596.344,0,0
308071.9,123.633,-592.346,0,0
309373.525,121.521,-589.409,0,0
310675.15,118.393,-586.705,0,0
311976.775,114.569,-583.36,0,0
313278.4,110.994,-578.872,0,0
314580,108.6,-574.238,0,0
315882,107.006,-570.156,0,0
317183,105.539,-567.114,0,0
318485,103.634,-564.957,0,0
319787,100.414,-563.173,0,0
321088,96.2576,-561.189,0,0
322390,90.3692,-558.238,0,0
323691,84.2297,-552.286,0,0
324993,80.6728,-544.816,0,0
326295,78.5532,-537.953,0,0
327596,76.7466,-531.298,0,0
328898,75.8526,-524.34,0,0
330200,76.4278,-517.469,0,0
331501.125,78.3926,-512.498,0,0
332802.75,79.5498,-509.164,0,0
334104.375,79.4464,-506.393,0,0
335406.0,78.2594,-503.315,0,0
336707.625,76.6094,-499.074,0,0
338009.25,75.3748,-493.412,0,0
339310.875,75.8917,-487.03,0,0
340612.5,78.1989,-481.268,0,0
341914.125,82.0698,-476.759,0,0
343215.75,86.637,-475.095,0,0
344517.375,89.1762,-475.898,0,0
345819.0,89.2502,-476.953,0,0
347121,87.7307,-476.951,0,0
348422,85.7049,-476.016,0,0
349724,83.3302,-474.049,0,0
351025,81.0268,-470.932,0,0
352327,79.4176,-467.104,0,0
353629,79.0453,-462.779,0,0
354930,79.9249,-459.363,0,0
356232,80.3127,-457.321,0,0
357534,79.9099,-455.475,0,0
358835,78.2682,-453.111,0,0
360137,76.972,-448.942,0,0
361438,77.2238,-444.488,0,0
362740.1,78.5437,-440.675,0,0
364041.725,80.0586,-438.077,0,0
365343.35,80.3042,-435.903,0,0
366644.975,80.3744,-432.291,0,0
367946.6,81.8164,-428.061,0,0
369248.225,85.1507,-424.203,0,0
370549.85,89.5772,-422.324,0,0
371851.475,94.2235,-422.659,0,0
373153.1,97.286,-425.655,0,0
374454.725,96.9581,-429.178,0,0
375756.35,94.9355,-430.401,0,0
377057.975,93.4683,-430.533,0,0
378359.6,91.9136,-430.651,0,0
379661,90.2817,-430.157,0,0
380963,88.7592,-429.633,0,0
382264,87.2616,-428.784,0,0
383566,86.5918,-428.514,0,0
384868,84.4001,-429.671,0,0
386169,80.0605,-429.402,0,0
387471,75.627,-426.797,0,0
388773,72.676,-422.347,0,0
390074,72.2647,-418.02,0,0
391376,73.1109,-415.992,0,0
392677,72.271,-416.112,0,0
393979,69.0288,-415.466,0,0
395280.7,65.2215,-412.688,0,0
396582.325,62.2039,-408.723,0,0
397883.95,60.2339,-404.248,0,0
399185.575,58.8244,-399.763,0,0
400006.6,58.1708,-396.832,0,0