File: Accelerated corrosion test data/2025-10-01_18-00-03/sample_3.csv
Frequency (Hz),Impedance (ohms),Phase (Radians),Temperature (C),Humidity (%)
10000.0,258.246,-11629.9,0,0
11301.625,229.682,-10302,0,0
12603.25,208.006,-9246.49,0,0
13904.875,190.121,-8386.4,0,0
15206.5,177.563,-7667.05,0,0
16508.125,165.445,-7079.36,0,0
17809.75,161.615,-6558.56,0,0
19111.375,149.452,-6112.56,0,0
20413.0,160.082,-5718.69,0,0
21714.625,140.528,-5399.79,0,0
23016.25,130.555,-5098.96,0,0
24317.875,121.303,-4824.03,0,0
25619.5,115.464,-4580.36,0,0
26921.1,110.76,-4353.22,0,0
28222.7,106.088,-4148.88,0,0
29524.4,111.398,-3973.77,0,0
30826,102.725,-3803.61,0,0
32127.6,103.378,-3642.86,0,0
33429.2,100.861,-3518.76,0,0
34730.9,89.3757,-3382.73,0,0
36032.5,85.2165,-3256.83,0,0
37334.1,82.3313,-3140.61,0,0
38635.7,79.8428,-3032.27,0,0
39937.4,77.5025,-2931.28,0,0
41239,76.0786,-2835.93,0,0
42540.6,74.9752,-2747.11,0,0
43842.225,73.4462,-2662.71,0,0
45143.85,72.0491,-2583.95,0,0
46445.475,71.2059,-2509.2,0,0
47747.1,71.7282,-2437.35,0,0
49048.725,69.9719,-2372.99,0,0
50350.35,68.1073,-2308.58,0,0
51651.975,67.8665,-2246.95,0,0
52953.6,68.4925,-2187.64,0,0
54255.225,71.4412,-2134.06,0,0
55556.85,68.1958,-2087.73,0,0
56858.475,63.1265,-2034.99,0,0
58160.1,62.6582,-1983.6,0,0
59461.7,63.4374,-1934.93,0,0
60763.3,64.8976,-1888.69,0,0
62065,67.17,-1844.97,0,0
63366.6,70.7635,-1801.94,0,0
64668.2,79.9732,-1761.61,0,0
65969.8,94.2657,-1738.14,0,0
67271.5,77.7283,-1712.08,0,0
68573.1,77.0766,-1675.77,0,0
69874.7,75.7113,-1646.74,0,0
71176.3,70.3609,-1615.4,0,0
72478,68.7097,-1583.27,0,0
73779.6,66.6994,-1554.73,0,0
75081.2,63.1844,-1525.93,0,0
76382.825,60.2148,-1496.58,0,0
77684.45,58.1652,-1467.81,0,0
78986.075,56.3868,-1439.71,0,0
80287.7,55.0519,-1412.07,0,0
81589.325,54.2414,-1385.21,0,0
82890.95,53.7655,-1359.1,0,0
84192.575,53.6324,-1333.74,0,0
85494.2,53.7425,-1309.03,0,0
86795.825,54.0229,-1284.99,0,0
88097.45,54.6667,-1261.33,0,0
89399.075,56.1582,-1237.86,0,0
90700.7,58.6867,-1216.18,0,0
92002.3,61.7107,-1195.74,0,0
93303.9,65.117,-1177.96,0,0
94605.6,66.2594,-1164.24,0,0
95907.2,60.2943,-1146.89,0,0
97208.8,59.2738,-1126.12,0,0
98510.4,58.9839,-1107.45,0,0
99812.1,57.8964,-1088.99,0,0
101114,56.9993,-1069.36,0,0
102415,58.4973,-1048.93,0,0
103717,62.2128,-1031.72,0,0
105019,65.1595,-1018.28,0,0
106320.175,63.5339,-1004.63,0,0
107621.8,60.8307,-988.364,0,0
108923.425,59.2984,-970.276,0,0
110225.05,59.6113,-951.518,0,0
111526.675,62.2238,-933.773,0,0
112828.3,64.6819,-917.811,0,0
114129.925,66.8399,-901.661,0,0
115431.55,69.8777,-885.536,0,0
116733.175,73.9361,-869.878,0,0
118034.8,79.6374,-855.198,0,0
119336.425,86.2727,-844.231,0,0
120638.05,90.1472,-838.474,0,0
121939.675,88.1316,-829.498,0,0
123241,88.4117,-817.413,0,0
124543,88.9465,-806.603,0,0
125845,88.9563,-796.494,0,0
127146,87.3806,-786.172,0,0
128448,84.8897,-774.133,0,0
129749,83.654,-760.105,0,0
131051,85.188,-747.059,0,0
132353,84.7521,-735.701,0,0
133654,84.0448,-723.784,0,0
134956,82.475,-710.91,0,0
136258,81.1091,-696.827,0,0
137559,81.349,-681.503,0,0
138860.775,82.6221,-667.816,0,0
140162.4,82.182,-653.766,0,0
141464.025,82.4655,-638.858,0,0
142765.65,82.4552,-622.813,0,0
144067.275,83.5667,-605.526,0,0
145368.9,85.5587,-587.714,0,0
146670.525,88.6829,-568.583,0,0
147972.15,93.9285,-548.632,0,0
149273.775,101.632,-528.215,0,0
150575.4,113.075,-508.404,0,0
151877.025,126.835,-492.642,0,0
153178.65,139.84,-480.086,0,0
154480,149.735,-468.591,0,0
155782,158.216,-452.583,0,0
157084,169.94,-435.28,0,0
158385,185.928,-421.721,0,0
159687,194.996,-406.614,0,0
160988,211.631,-377.896,0,0
162290,243.999,-353.584,0,0
163592,286.048,-341.677,0,0
164893,333.937,-338.667,0,0
166195,381.981,-361.585,0,0
167497,411.898,-398.517,0,0
168798,421.948,-438.686,0,0
170100,414.434,-474.683,0,0
171401.375,394.65,-484.756,0,0
172703.0,390.295,-482.256,0,0
174004.625,397.359,-484.982,0,0
175306.25,401.262,-502.844,0,0
176607.875,390.841,-518.36,0,0
177909.5,374.582,-529.204,0,0
179211.125,354.815,-520.196,0,0
180512.75,349.452,-505.237,0,0
181814.375,355.715,-500.86,0,0
183116.0,347.776,-505.494,0,0
184417.625,336.714,-497.23,0,0
185719.25,329.304,-481.837,0,0
187021,329.459,-461.02,0,0
188322,339.555,-444.823,0,0
189624,347.486,-435.387,0,0
190926,356.85,-423.651,0,0
192227,365.571,-410.576,0,0
193529,379.281,-393.014,0,0
194831,406.522,-376.646,0,0
196132,440.867,-379.84,0,0
197434,463.098,-395.955,0,0
198735,468.521,-410.718,0,0
200037,473.622,-411.558,0,0
201339,478.26,-406.921,0,0
202640.35,493.53,-395.186,0,0
203941.975,524.344,-391.301,0,0
205243.6,555.491,-403.305,0,0
206545.225,571.54,-422.962,0,0
207846.85,584.5,-430.298,0,0
209148.475,610.159,-435.358,0,0
210450.1,642.121,-453.084,0,0
211751.725,669.738,-482.331,0,0
213053.35,692.462,-515.923,0,0
214354.975,710.819,-558.541,0,0
215656.6,718.635,-605.604,0,0
216958.225,717.339,-657.997,0,0
218259.85,699.871,-704.903,0,0
219561,674.135,-742.218,0,0
220863,654.265,-775.994,0,0
222165,620.218,-811.597,0,0
223466,576.88,-833.924,0,0
224768,537.347,-834.912,0,0
226070,517.286,-832.893,0,0
227371,499.981,-844.851,0,0
228673,474.749,-858.163,0,0
229974,443.055,-866.236,0,0
231276,411.296,-867.221,0,0
232578,382.928,-863.05,0,0
233879,357.273,-857.476,0,0
235180.95,332.359,-850.877,0,0
236482.575,306.995,-841.749,0,0
237784.2,283.503,-828.429,0,0
239085.825,262.837,-810.904,0,0
240387.45,248.203,-791.072,0,0
241689.075,238.479,-771.922,0,0
242990.7,233.472,-754.31,0,0
244292.325,231.388,-740.664,0,0
245593.95,227.937,-730.649,0,0
246895.575,224.354,-720.762,0,0
248197.2,220.56,-711.032,0,0
249498.825,218.393,-702.006,0,0
250800,215.766,-695.213,0,0
252102,210.141,-688.357,0,0
253404,203.431,-677.274,0,0
254705,200.61,-662.645,0,0
256007,202.904,-647.068,0,0
257309,211.747,-635.182,0,0
258610,221.019,-629.908,0,0
259912,230.882,-625.95,0,0
261213,242.368,-629.283,0,0
262515,248.408,-640.769,0,0
263817,243.561,-653.039,0,0
265118,232.612,-659.867,0,0
266420,218.845,-659.73,0,0
267721.55,207.203,-653.137,0,0
269023.175,200.663,-643.348,0,0
270324.8,198.216,-633.934,0,0
271626.425,198.978,-625.89,0,0
272928.05,201.027,-620.465,0,0
274229.675,202.609,-616.151,0,0
275531.3,206.397,-612.279,0,0
276832.925,212.404,-611.508,0,0
278134.55,217.381,-617.028,0,0
279436.175,216.351,-626.401,0,0
280737.8,207.454,-633.247,0,0
282039.425,197.604,-634.343,0,0
283341,187.557,-632.665,0,0
284643,179.014,-627.596,0,0
285944,172.062,-621.011,0,0
287246,167.413,-612.239,0,0
288548,167.319,-603.375,0,0
289849,170.055,-598.198,0,0
291151,171.785,-595.79,0,0
292452,172.061,-594.12,0,0
293754,172.871,-591.495,0,0
295056,175.785,-590.634,0,0
296357,178.321,-594.119,0,0
297659,176.772,-599.934,0,0
298960.525,170.538,-604.664,0,0
300262.15,162.762,-606.102,0,0
301563.775,154.738,-605.335,0,0
302865.4,147.265,-602.458,0,0
304167.025,140.875,-598.471,0,0
305468.65,135.705,-593.702,0,0
306770.275,131.473,-588.766,0,0
308071.9,128.668,-584.04,0,0
309373.525,126.01,-580.798,0,0
310675.15,122.2,-577.645,0,0
311976.775,117.976,-573.48,0,0
313278.4,113.848,-568.041,0,0
314580,111.383,-561.22,0,0
315882,111.39,-554.71,0,0
317183,113.007,-550.503,0,0
318485,113.577,-548.585,0,0
319787,112.59,-546.757,0,0
321088,111.507,-544.196,0,0
322390,111.157,-541.78,0,0
323691,110.934,-540.816,0,0
324993,109.337,-540.784,0,0
326295,106.247,-540.559,0,0
327596,102.112,-539.182,0,0
328898,98.2023,-536.762,0,0
330200,94.388,-534.195,0,0
331501.125,90.1502,-531.033,0,0
332802.75,85.815,-526.913,0,0
334104.375,81.782,-522.129,0,0
335406.0,78.3796,-516.125,0,0
336707.625,76.3234,-509.638,0,0
338009.25,75.2928,-503.415,0,0
339310.875,74.9872,-497.108,0,0
340612.5,76.1368,-491.042,0,0
341914.125,78.4762,-486.569,0,0
343215.75,80.674,-483.849,0,0
344517.375,81.6146,-482.325,0,0
345819.0,81.4286,-480.677,0,0
347121,80.5456,-478.469,0,0
348422,79.7425,-475.44,0,0
349724,79.6085,-472.065,0,0
351025,80.506,-469.169,0,0
352327,81.387,-467.806,0,0
353629,80.8164,-467.35,0,0
354930,78.6169,-465.839,0,0
356232,76.652,-462.944,0,0
357534,75.3207,-459.595,0,0
358835,74.4075,-456.146,0,0
360137,74.0927,-452.354,0,0
361438,74.3352,-448.78,0,0
362740.1,75.1131,-445.762,0,0
364041.725,76.3329,-443.234,0,0
365343.35,77.6575,-442.093,0,0
366644.975,77.3777,-442.416,0,0
367946.6,74.4932,-441.472,0,0
369248.225,71.8676,-437.619,0,0
370549.85,72.1875,-432.813,0,0
371851.475,74.0164,-430.486,0,0
373153.1,74.0845,-429.863,0,0
374454.725,72.6328,-428.425,0,0
375756.35,71.0048,-425.648,0,0
377057.975,70.3216,-421.97,0,0
378359.6,70.9055,-418.542,0,0
379661,71.6421,-415.989,0,0
380963,72.3824,-413.905,0,0
382264,73.1499,-412.414,0,0
383566,73.1029,-411.59,0,0
384868,71.9891,-410.362,0,0
386169,70.4785,-408.275,0,0
387471,69.2828,-405.393,0,0
388773,68.4053,-402.174,0,0
390074,68.0305,-398.262,0,0
391376,68.7883,-394.17,0,0
392677,70.6985,-390.495,0,0
393979,73.3603,-388.046,0,0
395280.7,75.951,-386.899,0,0
396582.325,77.8845,-386.961,0,0
397883.95,78.6761,-387.731,0,0
399185.575,77.9544,-388.359,0,0
400006.6,76.9812,-388.208,0,0