File: Accelerated corrosion test data/2025-10-01_18-00-03/sample_1.csv
Frequency (Hz),Impedance (ohms),Phase (Radians),Temperature (C),Humidity (%)
10000.0,271.253,-12108.2,0,0
11301.625,236.464,-10726.1,0,0
12603.25,227.86,-9634.32,0,0
13904.875,229.804,-8715.29,0,0
15206.5,200.009,-7997.06,0,0
16508.125,187.275,-7368.72,0,0
17809.75,175.105,-6838.29,0,0
19111.375,162.639,-6371.64,0,0
20413.0,179.971,-5937.59,0,0
21714.625,147.129,-5624.39,0,0
23016.25,143.364,-5317.59,0,0
24317.875,127.689,-5027.97,0,0
25619.5,114.177,-4767.08,0,0
26921.1,125.042,-4523.27,0,0
28222.7,117.972,-4318.47,0,0
29524.4,112.32,-4151.48,0,0
30826,108.928,-3967.79,0,0
32127.6,103.767,-3810.19,0,0
33429.2,90.6036,-3667.37,0,0
34730.9,87.0549,-3526.88,0,0
36032.5,79.8743,-3397.24,0,0
37334.1,76.5868,-3275.77,0,0
38635.7,76.2057,-3163.31,0,0
39937.4,78.492,-3057.29,0,0
41239,77.2112,-2959.41,0,0
42540.6,73.7982,-2868.23,0,0
43842.225,73.104,-2780.54,0,0
45143.85,73.0095,-2700.09,0,0
46445.475,67.9754,-2624.86,0,0
47747.1,64.8,-2552.02,0,0
49048.725,62.5401,-2482.25,0,0
50350.35,60.8897,-2416.01,0,0
51651.975,60.0693,-2352.74,0,0
52953.6,59.1587,-2292.36,0,0
54255.225,59.765,-2235.81,0,0
55556.85,57.1641,-2180.85,0,0
56858.475,57.0765,-2128.39,0,0
58160.1,56.6583,-2078.14,0,0
59461.7,56.0404,-2030.65,0,0
60763.3,55.5752,-1985.17,0,0
62065,54.0195,-1941.37,0,0
63366.6,53.2818,-1897.96,0,0
64668.2,53.9245,-1856.51,0,0
65969.8,56.9196,-1818.76,0,0
67271.5,55.4302,-1781.88,0,0
68573.1,54.5788,-1747.05,0,0
69874.7,53.2707,-1713.51,0,0
71176.3,51.692,-1679.29,0,0
72478,50.366,-1645.76,0,0
73779.6,49.1374,-1612.35,0,0
75081.2,49.7947,-1580.56,0,0
76382.825,50.6435,-1549.84,0,0
77684.45,51.6345,-1520.18,0,0
78986.075,53.0564,-1493.19,0,0
80287.7,53.0387,-1466.53,0,0
81589.325,52.8191,-1439.39,0,0
82890.95,52.7069,-1412.27,0,0
84192.575,54.4376,-1386.67,0,0
85494.2,56.2299,-1362.66,0,0
86795.825,57.9358,-1339,0,0
88097.45,57.929,-1316.37,0,0
89399.075,58.9173,-1292.14,0,0
90700.7,63.3276,-1268.68,0,0
92002.3,69.5178,-1248.18,0,0
93303.9,77.2269,-1232.28,0,0
94605.6,74.979,-1224.12,0,0
95907.2,67.2892,-1205.82,0,0
97208.8,64.5314,-1184.72,0,0
98510.4,64.2432,-1164.61,0,0
99812.1,64.1489,-1144.28,0,0
101114,64.3411,-1125.25,0,0
102415,64.4476,-1102.98,0,0
103717,68.9652,-1081.88,0,0
105019,76.4047,-1064.33,0,0
106320.175,83.6985,-1049.16,0,0
107621.8,89.8578,-1038.13,0,0
108923.425,94.5798,-1028.46,0,0
110225.05,95.0363,-1020.11,0,0
111526.675,93.9748,-1008.89,0,0
112828.3,94.791,-998.862,0,0
114129.925,92.5532,-990.196,0,0
115431.55,87.9892,-979.359,0,0
116733.175,83.5017,-965.334,0,0
118034.8,80.4322,-949.588,0,0
119336.425,80.3755,-933.691,0,0
120638.05,81.7374,-919.585,0,0
121939.675,81.3117,-907.667,0,0
123241,79.7366,-893.279,0,0
124543,80.0464,-878.648,0,0
125845,81.1237,-864.371,0,0
127146,82.2451,-850.539,0,0
128448,84.7347,-835.852,0,0
129749,88.0103,-822.342,0,0
131051,92.9657,-810.389,0,0
132353,96.4887,-800.503,0,0
133654,98.9236,-790.889,0,0
134956,100.316,-780.433,0,0
136258,102.78,-769.58,0,0
137559,106.237,-759.317,0,0
138860.775,108.449,-751.935,0,0
140162.4,108.409,-742.914,0,0
141464.025,109.274,-732.267,0,0
142765.65,110.645,-722.507,0,0
144067.275,110.723,-711.848,0,0
145368.9,112.659,-699.923,0,0
146670.525,115.512,-689.076,0,0
147972.15,117.982,-679.486,0,0
149273.775,119.344,-669.134,0,0
150575.4,121.249,-658.951,0,0
151877.025,121.185,-646.618,0,0
153178.65,123.496,-632.184,0,0
154480,126.833,-615.76,0,0
155782,136.379,-599.314,0,0
157084,148.613,-585.779,0,0
158385,160.834,-576.483,0,0
159687,173.624,-565.986,0,0
160988,191.924,-558.145,0,0
162290,208.774,-558.468,0,0
163592,223.03,-561.991,0,0
164893,233.824,-566.718,0,0
166195,243.417,-577.438,0,0
167497,243.907,-589.176,0,0
168798,237.75,-597.511,0,0
170100,228.132,-598.683,0,0
171401.375,222.473,-594.635,0,0
172703.0,216.685,-589.994,0,0
174004.625,213.373,-581.5,0,0
175306.25,215.016,-575.191,0,0
176607.875,215.219,-571.547,0,0
177909.5,213.865,-567.74,0,0
179211.125,211.792,-565.288,0,0
180512.75,205.648,-561.531,0,0
181814.375,198.697,-553.716,0,0
183116.0,191.711,-541.402,0,0
184417.625,188.975,-526.464,0,0
185719.25,188.636,-511.401,0,0
187021,190.526,-495.745,0,0
188322,193.435,-480.948,0,0
189624,198.566,-464.548,0,0
190926,205.152,-449.282,0,0
192227,212.427,-433.92,0,0
193529,220.248,-416.635,0,0
194831,231.253,-397.88,0,0
196132,246.824,-378.827,0,0
197434,267.452,-360.685,0,0
198735,289.753,-346.239,0,0
200037,314.679,-331.131,0,0
201339,347.05,-316.838,0,0
202640.35,386.492,-309.187,0,0
203941.975,431.773,-310.213,0,0
205243.6,480.463,-329.115,0,0
206545.225,516.475,-363.72,0,0
207846.85,535.506,-403.862,0,0
209148.475,539.957,-440.299,0,0
210450.1,533.524,-465.134,0,0
211751.725,526.283,-475.349,0,0
213053.35,533.215,-477.067,0,0
214354.975,548.281,-485.356,0,0
215656.6,561.975,-501.791,0,0
216958.225,573.627,-513.644,0,0
218259.85,593.141,-530.342,0,0
219561,615.674,-553.138,0,0
220863,638.496,-588.133,0,0
222165,654.184,-635.523,0,0
223466,656.207,-693.114,0,0
224768,639.571,-750.76,0,0
226070,606.909,-803.021,0,0
227371,561.9,-841.304,0,0
228673,513.83,-866.047,0,0
229974,464.675,-877.906,0,0
231276,420.625,-877.222,0,0
232578,385.659,-871.374,0,0
233879,355.311,-864.253,0,0
235180.95,328.553,-856.401,0,0
236482.575,304.276,-846.434,0,0
237784.2,283.561,-837.315,0,0
239085.825,262.573,-827.898,0,0
240387.45,242.69,-815.341,0,0
241689.075,226.698,-801.455,0,0
242990.7,213.859,-788.385,0,0
244292.325,202.216,-776.627,0,0
245593.95,190.599,-764.705,0,0
246895.575,180.214,-752.116,0,0
248197.2,171.287,-739.368,0,0
249498.825,163.624,-726.609,0,0
250800,157.064,-714.117,0,0
252102,151.405,-701.648,0,0
253404,146.526,-689.028,0,0
254705,143.426,-675.828,0,0
256007,142.036,-663.511,0,0
257309,141.748,-651.616,0,0
258610,142.833,-640.528,0,0
259912,145.54,-629.926,0,0
261213,150.066,-621.174,0,0
262515,155.207,-614.825,0,0
263817,161.316,-610.332,0,0
265118,167.463,-609.986,0,0
266420,170.838,-613.466,0,0
267721.55,168.654,-618.927,0,0
269023.175,160.866,-620.919,0,0
270324.8,152.145,-617.386,0,0
271626.425,145.625,-610.138,0,0
272928.05,142.729,-601.465,0,0
274229.675,142.532,-593.84,0,0
275531.3,143.749,-587.676,0,0
276832.925,145.554,-582.695,0,0
278134.55,147.846,-579.708,0,0
279436.175,149.88,-578.699,0,0
280737.8,149.344,-579.536,0,0
282039.425,146.388,-579.316,0,0
283341,142.135,-577.705,0,0
284643,137.999,-574.746,0,0
285944,133.189,-570.425,0,0
287246,128.832,-564.04,0,0
288548,126.363,-555.117,0,0
289849,128.094,-547.003,0,0
291151,130.224,-541.491,0,0
292452,132.2,-536.825,0,0
293754,133.364,-532.698,0,0
295056,134.064,-526.873,0,0
296357,137.895,-519.77,0,0
297659,143.844,-515.49,0,0
298960.525,149.909,-512.764,0,0
300262.15,156.558,-511.957,0,0
301563.775,162.772,-512.679,0,0
302865.4,168.491,-515.342,0,0
304167.025,173.291,-519.699,0,0
305468.65,176.071,-524.791,0,0
306770.275,178.014,-530.629,0,0
308071.9,178.693,-537.498,0,0
309373.525,176.632,-545.057,0,0
310675.15,172.555,-551.935,0,0
311976.775,166.794,-558.102,0,0
313278.4,158.77,-562.659,0,0
314580,150.103,-564.855,0,0
315882,141.553,-565.068,0,0
317183,133.198,-563.951,0,0
318485,125.672,-561.211,0,0
319787,119.032,-558.181,0,0
321088,112.417,-554.343,0,0
322390,106.63,-549.261,0,0
323691,102.328,-543.279,0,0
324993,99.9646,-537.431,0,0
326295,98.849,-532.87,0,0
327596,97.9198,-529.344,0,0
328898,96.9599,-526.894,0,0
330200,95.5461,-525.099,0,0
331501.125,93.253,-523.911,0,0
332802.75,89.9941,-522.413,0,0
334104.375,86.1498,-520.294,0,0
335406.0,82.0801,-517.234,0,0
336707.625,78.6569,-513.535,0,0
338009.25,75.3954,-509.725,0,0
339310.875,72.4829,-505.518,0,0
340612.5,69.9624,-501.223,0,0
341914.125,67.8325,-496.975,0,0
343215.75,65.7794,-492.791,0,0
344517.375,63.8255,-488.673,0,0
345819.0,61.8622,-484.216,0,0
347121,60.2511,-479.599,0,0
348422,58.8526,-474.879,0,0
349724,57.9082,-470.03,0,0
351025,57.6192,-465.258,0,0
352327,57.5294,-460.899,0,0
353629,57.4769,-456.743,0,0
354930,57.6905,-452.613,0,0
356232,58.1557,-448.729,0,0
357534,58.6885,-445.375,0,0
358835,58.9143,-442.238,0,0
360137,59.1556,-438.819,0,0
361438,59.4469,-435.633,0,0
362740.1,59.699,-432.46,0,0
364041.725,59.849,-429.128,0,0
365343.35,60.2524,-425.564,0,0
366644.975,60.9132,-422.23,0,0
367946.6,61.3633,-418.643,0,0
369248.225,62.4997,-414.27,0,0
370549.85,65.1005,-410.387,0,0
371851.475,68.3219,-407.543,0,0
373153.1,71.657,-405.893,0,0
374454.725,74.6438,-405.458,0,0
375756.35,76.499,-405.59,0,0
377057.975,78.0047,-405.451,0,0
378359.6,79.3467,-405.716,0,0
379661,80.1217,-406.364,0,0
380963,80.6167,-406.819,0,0
382264,80.9471,-408.194,0,0
383566,79.633,-409.863,0,0
384868,77.0687,-410.575,0,0
386169,74.274,-410.187,0,0
387471,71.3475,-408.819,0,0
388773,69.0461,-406.379,0,0
390074,67.6889,-403.921,0,0
391376,66.8289,-401.944,0,0
392677,65.5845,-400.507,0,0
393979,63.6889,-398.783,0,0
395280.7,61.6442,-396.387,0,0
396582.325,59.8081,-393.444,0,0
397883.95,58.3747,-390,0,0
399185.575,57.4428,-386.435,0,0
400006.6,57.0398,-384.133,0,0