File: Accelerated corrosion test data/2025-10-01_18-00-03/sample_7.csv
Frequency (Hz),Impedance (ohms),Phase (Radians),Temperature (C),Humidity (%)
10000.0,279.995,-11959.4,0,0
11301.625,251.665,-10581.1,0,0
12603.25,264.437,-9541.7,0,0
13904.875,214.363,-8655.64,0,0
15206.5,200.914,-7926.54,0,0
16508.125,176.064,-7293.66,0,0
17809.75,174.888,-6745.68,0,0
19111.375,182.929,-6305.94,0,0
20413.0,172.876,-5921.96,0,0
21714.625,157.398,-5579.71,0,0
23016.25,134.338,-5260.48,0,0
24317.875,126.578,-4971.12,0,0
25619.5,122.062,-4710.51,0,0
26921.1,126.848,-4467.9,0,0
28222.7,181.009,-4270.58,0,0
29524.4,137.013,-4122.51,0,0
30826,136.65,-3943.06,0,0
32127.6,120.354,-3799.45,0,0
33429.2,104.815,-3649.47,0,0
34730.9,95.9648,-3507.41,0,0
36032.5,91.857,-3375.47,0,0
37334.1,89.2336,-3253.56,0,0
38635.7,89.3186,-3138.03,0,0
39937.4,98.2543,-3038.75,0,0
41239,89.0157,-2950.47,0,0
42540.6,83.084,-2855.99,0,0
43842.225,82.8192,-2768.27,0,0
45143.85,83.164,-2691.71,0,0
46445.475,79.8853,-2619.9,0,0
47747.1,74.0512,-2544.61,0,0
49048.725,71.3665,-2475.23,0,0
50350.35,69.3967,-2408.9,0,0
51651.975,67.6539,-2346.01,0,0
52953.6,66.637,-2285.95,0,0
54255.225,65.4395,-2229.58,0,0
55556.85,64.6113,-2175.38,0,0
56858.475,63.6523,-2123.69,0,0
58160.1,63.2479,-2073.81,0,0
59461.7,63.1967,-2027.28,0,0
60763.3,62.7687,-1983.58,0,0
62065,60.8102,-1940.71,0,0
63366.6,59.8959,-1898.68,0,0
64668.2,58.9456,-1858.49,0,0
65969.8,59.108,-1820.74,0,0
67271.5,57.1499,-1784.35,0,0
68573.1,55.9368,-1747.8,0,0
69874.7,55.3485,-1712.97,0,0
71176.3,54.8623,-1679.79,0,0
72478,53.9493,-1647.55,0,0
73779.6,53.1284,-1616.12,0,0
75081.2,52.7625,-1585.59,0,0
76382.825,52.3136,-1556.1,0,0
77684.45,51.963,-1527.57,0,0
78986.075,51.7419,-1499.77,0,0
80287.7,51.7283,-1473.07,0,0
81589.325,51.5149,-1447.02,0,0
82890.95,51.377,-1421.78,0,0
84192.575,51.4831,-1396.91,0,0
85494.2,51.6928,-1373.12,0,0
86795.825,51.8028,-1350.06,0,0
88097.45,52.2268,-1327.4,0,0
89399.075,52.1668,-1305.57,0,0
90700.7,52.6292,-1284,0,0
92002.3,52.9028,-1262.99,0,0
93303.9,52.9377,-1242.25,0,0
94605.6,54.9636,-1222.97,0,0
95907.2,54.4343,-1204.51,0,0
97208.8,54.0271,-1185.23,0,0
98510.4,55.3526,-1166.25,0,0
99812.1,55.3996,-1147.96,0,0
101114,56.3173,-1129.45,0,0
102415,57.771,-1111.68,0,0
103717,60.5494,-1095.42,0,0
105019,61.4983,-1080.38,0,0
106320.175,61.0417,-1064.55,0,0
107621.8,62.7943,-1048.28,0,0
108923.425,63.4565,-1033.18,0,0
110225.05,63.9816,-1016.75,0,0
111526.675,67.3908,-1000.56,0,0
112828.3,72.1634,-985.868,0,0
114129.925,76.0272,-974.316,0,0
115431.55,79.8283,-962.704,0,0
116733.175,84.6472,-954.427,0,0
118034.8,84.1461,-947.441,0,0
119336.425,85.8536,-940.075,0,0
120638.05,80.7479,-936.517,0,0
121939.675,72.2503,-925.442,0,0
123241,66.9612,-911.734,0,0
124543,63.6183,-897.08,0,0
125845,60.5641,-883.472,0,0
127146,58.1127,-869.118,0,0
128448,56.5956,-854.496,0,0
129749,55.6898,-839.915,0,0
131051,55.0982,-825.667,0,0
132353,54.7876,-810.737,0,0
133654,55.6941,-795.426,0,0
134956,58.5981,-780.479,0,0
136258,63.3045,-768.74,0,0
137559,64.6513,-759.698,0,0
138860.775,63.0527,-748.698,0,0
140162.4,62.9595,-735.415,0,0
141464.025,63.2058,-722.409,0,0
142765.65,64.031,-708.423,0,0
144067.275,66.1797,-694.66,0,0
145368.9,68.3455,-682.102,0,0
146670.525,69.587,-668.372,0,0
147972.15,72.0618,-654.734,0,0
149273.775,73.8549,-641.59,0,0
150575.4,75.5546,-626.126,0,0
151877.025,78.7528,-609.312,0,0
153178.65,84.4453,-591.856,0,0
154480,92.0328,-574.948,0,0
155782,101.857,-558.908,0,0
157084,112.928,-545.121,0,0
158385,123.086,-533.736,0,0
159687,129.767,-522.703,0,0
160988,135.075,-503.944,0,0
162290,148.858,-479.798,0,0
163592,170.604,-456.429,0,0
164893,201.632,-438.845,0,0
166195,235.7,-423.328,0,0
167497,285.243,-419.092,0,0
168798,335.795,-435.868,0,0
170100,376.906,-470.76,0,0
171401.375,401.315,-526.208,0,0
172703.0,398.803,-580.939,0,0
174004.625,368.401,-620.161,0,0
175306.25,334.38,-635.031,0,0
176607.875,318.167,-625.204,0,0
177909.5,321.585,-634.56,0,0
179211.125,306.426,-665.983,0,0
180512.75,270.947,-674.66,0,0
181814.375,237.35,-676.812,0,0
183116.0,204.738,-660.57,0,0
184417.625,182.517,-637.698,0,0
185719.25,170.955,-616.601,0,0
187021,160.344,-592.149,0,0
188322,159.745,-568.975,0,0
189624,155.534,-553.179,0,0
190926,150.791,-530.762,0,0
192227,153.485,-506.112,0,0
193529,159.249,-482.455,0,0
194831,169.181,-460.066,0,0
196132,183.005,-440.245,0,0
197434,197.887,-424.226,0,0
198735,213.327,-408.356,0,0
200037,229.926,-392.742,0,0
201339,251.03,-377.724,0,0
202640.35,278.331,-364.769,0,0
203941.975,309.173,-359.177,0,0
205243.6,338.898,-360.482,0,0
206545.225,368.442,-369.247,0,0
207846.85,386.574,-378.799,0,0
209148.475,418.099,-375.082,0,0
210450.1,463.558,-400.851,0,0
211751.725,485.075,-449.322,0,0
213053.35,485.87,-488.96,0,0
214354.975,476.719,-524.46,0,0
215656.6,459.15,-545.332,0,0
216958.225,447.431,-563.433,0,0
218259.85,427.341,-577.386,0,0
219561,405.53,-581.806,0,0
220863,389.642,-572.834,0,0
222165,386.877,-560.647,0,0
223466,392.913,-554.049,0,0
224768,402.237,-551.597,0,0
226070,416.991,-553.271,0,0
227371,433.31,-566.496,0,0
228673,448.236,-587.943,0,0
229974,452.72,-620.796,0,0
231276,442.342,-656.797,0,0
232578,421.151,-685.909,0,0
233879,389.32,-712.301,0,0
235180.95,341.62,-719.562,0,0
236482.575,308.317,-702.942,0,0
237784.2,288.355,-690.273,0,0
239085.825,269.168,-669.658,0,0
240387.45,266.773,-650.829,0,0
241689.075,264.862,-644.898,0,0
242990.7,254.022,-636.199,0,0
244292.325,249.029,-619.435,0,0
245593.95,256.515,-606.287,0,0
246895.575,262.07,-602.891,0,0
248197.2,265.076,-600.635,0,0
249498.825,268.095,-599.679,0,0
250800,270.002,-601.85,0,0
252102,270.771,-605.006,0,0
253404,268.225,-609.727,0,0
254705,261.686,-615.204,0,0
256007,250.264,-615.821,0,0
257309,240.601,-610.843,0,0
258610,233.06,-602.43,0,0
259912,229.274,-592.548,0,0
261213,229.05,-580.875,0,0
262515,236.912,-568.615,0,0
263817,252.1,-566.787,0,0
265118,260.992,-575.365,0,0
266420,263.141,-583.617,0,0
267721.55,263.696,-592.24,0,0
269023.175,259.92,-598.914,0,0
270324.8,259.707,-603.291,0,0
271626.425,261.589,-612.499,0,0
272928.05,259.26,-633.985,0,0
274229.675,236.925,-655.778,0,0
275531.3,204.25,-661.146,0,0
276832.925,173.48,-651.124,0,0
278134.55,152.03,-630.612,0,0
279436.175,143.084,-608.28,0,0
280737.8,141.763,-590.403,0,0
282039.425,142.032,-579.081,0,0
283341,138.96,-568.829,0,0
284643,137.68,-554.834,0,0
285944,141.003,-542.809,0,0
287246,145.005,-533.917,0,0
288548,147.833,-525.589,0,0
289849,152.423,-516.996,0,0
291151,157.84,-509.697,0,0
292452,163.497,-503.311,0,0
293754,169.826,-496.835,0,0
295056,177.936,-489.866,0,0
296357,190.395,-483.925,0,0
297659,206.362,-482.51,0,0
298960.525,223.589,-487.356,0,0
300262.15,239.586,-498.512,0,0
301563.775,253.074,-517.301,0,0
302865.4,257.405,-544.791,0,0
304167.025,246.369,-570.047,0,0
305468.65,228.426,-587.335,0,0
306770.275,207.247,-595.907,0,0
308071.9,187.676,-597.074,0,0
309373.525,170.991,-593.442,0,0
310675.15,158.252,-587.46,0,0
311976.775,148.416,-580.988,0,0
313278.4,140.135,-574.917,0,0
314580,132.588,-568.097,0,0
315882,127.104,-560.596,0,0
317183,123.459,-553.748,0,0
318485,120.57,-547.827,0,0
319787,118.765,-542.326,0,0
321088,117.437,-538.651,0,0
322390,115.026,-535.956,0,0
323691,111.657,-532.871,0,0
324993,108.235,-528.909,0,0
326295,105.647,-524.7,0,0
327596,103.537,-521.181,0,0
328898,100.976,-518.162,0,0
330200,98.1322,-514.793,0,0
331501.125,95.3886,-511.78,0,0
332802.75,91.5819,-508.777,0,0
334104.375,87.2851,-504.44,0,0
335406.0,83.6928,-499.284,0,0
336707.625,80.582,-493.679,0,0
338009.25,78.1192,-487.531,0,0
339310.875,76.6028,-481.431,0,0
340612.5,75.5709,-475.459,0,0
341914.125,75.0948,-469.525,0,0
343215.75,75.2679,-463.878,0,0
344517.375,76.0693,-458.718,0,0
345819.0,77.1226,-454.412,0,0
347121,77.9539,-450.865,0,0
348422,77.976,-447.767,0,0
349724,77.4784,-444.008,0,0
351025,77.0782,-439.583,0,0
352327,77.6356,-434.801,0,0
353629,79.0967,-430.37,0,0
354930,81.0266,-427.109,0,0
356232,82.3072,-425.093,0,0
357534,82.2574,-423.348,0,0
358835,80.8619,-420.559,0,0
360137,80.0242,-415.701,0,0
361438,80.9139,-410.665,0,0
362740.1,82.6397,-406.219,0,0
364041.725,84.7003,-402.286,0,0
365343.35,87.4154,-398.783,0,0
366644.975,90.1687,-396.503,0,0
367946.6,92.5809,-394.592,0,0
369248.225,95.1032,-393.755,0,0
370549.85,95.712,-394.257,0,0
371851.475,93.7979,-392.97,0,0
373153.1,92.8101,-388.814,0,0
374454.725,93.8436,-384.521,0,0
375756.35,95.5596,-380.814,0,0
377057.975,97.5241,-377.585,0,0
378359.6,99.541,-374.142,0,0
379661,102.615,-370.708,0,0
380963,106.228,-368.299,0,0
382264,109.84,-366.421,0,0
383566,113.643,-365.392,0,0
384868,116.832,-365.143,0,0
386169,119.232,-364.914,0,0
387471,121.428,-364.459,0,0
388773,123.444,-363.355,0,0
390074,126.584,-362.031,0,0
391376,130.34,-361.519,0,0
392677,134.126,-361.533,0,0
393979,138.198,-362.212,0,0
395280.7,142.542,-363.465,0,0
396582.325,147.004,-366.195,0,0
397883.95,151.105,-370.466,0,0
399185.575,153.873,-376.556,0,0
400006.6,154.193,-381.084,0,0