File: Accelerated corrosion test data/2025-10-01_18-00-03/sample_2.csv
Frequency (Hz),Impedance (ohms),Phase (Radians),Temperature (C),Humidity (%)
10000.0,225.93,-11279.5,0,0
11301.625,201.279,-9990.08,0,0
12603.25,180.953,-8968.58,0,0
13904.875,177.189,-8144.03,0,0
15206.5,157.899,-7451.5,0,0
16508.125,141.659,-6865.61,0,0
17809.75,131.302,-6364.57,0,0
19111.375,127.579,-5931.75,0,0
20413.0,117.338,-5553.34,0,0
21714.625,124.431,-5227.3,0,0
23016.25,110.243,-4934.94,0,0
24317.875,101.96,-4672.84,0,0
25619.5,96.2417,-4433.05,0,0
26921.1,94.7656,-4217.6,0,0
28222.7,89.2715,-4021.54,0,0
29524.4,93.4879,-3840.31,0,0
30826,86.7173,-3686.56,0,0
32127.6,81.4952,-3534.84,0,0
33429.2,79.311,-3398.27,0,0
34730.9,75.2804,-3269.68,0,0
36032.5,72.686,-3149.8,0,0
37334.1,70.6507,-3037.91,0,0
38635.7,68.5172,-2934.18,0,0
39937.4,66.8098,-2836.62,0,0
41239,65.3374,-2744.83,0,0
42540.6,64.0556,-2659.51,0,0
43842.225,62.9663,-2578.62,0,0
45143.85,61.7596,-2502.14,0,0
46445.475,60.7235,-2430.36,0,0
47747.1,60.2465,-2362.1,0,0
49048.725,60.1554,-2298.87,0,0
50350.35,57.7604,-2237.26,0,0
51651.975,56.6704,-2179.33,0,0
52953.6,55.052,-2122.75,0,0
54255.225,54.2936,-2068.77,0,0
55556.85,53.9081,-2017.38,0,0
56858.475,53.7359,-1968.18,0,0
58160.1,54.0416,-1921.73,0,0
59461.7,54.674,-1876.25,0,0
60763.3,56.0016,-1834.02,0,0
62065,58.4754,-1796.92,0,0
63366.6,55.8389,-1760.5,0,0
64668.2,52.7805,-1722.97,0,0
65969.8,50.7314,-1683.94,0,0
67271.5,51.544,-1646.95,0,0
68573.1,53.7962,-1613.7,0,0
69874.7,55.9569,-1584.36,0,0
71176.3,52.9828,-1556.02,0,0
72478,47.7284,-1525.38,0,0
73779.6,45.2558,-1492.95,0,0
75081.2,45.3413,-1461.25,0,0
76382.825,47.0564,-1431.5,0,0
77684.45,49.9031,-1403.6,0,0
78986.075,53.0282,-1379.7,0,0
80287.7,51.7764,-1358.25,0,0
81589.325,49.3239,-1333.6,0,0
82890.95,48.1091,-1308.15,0,0
84192.575,49.0493,-1283.7,0,0
85494.2,49.8739,-1260.46,0,0
86795.825,50.764,-1238.42,0,0
88097.45,51.3885,-1217.73,0,0
89399.075,51.477,-1196.46,0,0
90700.7,51.6829,-1176.16,0,0
92002.3,53.4076,-1155.51,0,0
93303.9,56.1842,-1137.48,0,0
94605.6,55.7475,-1121.05,0,0
95907.2,55.9222,-1101.59,0,0
97208.8,58.0177,-1085.79,0,0
98510.4,57.8996,-1072.02,0,0
99812.1,52.7753,-1057.27,0,0
101114,49.43,-1039.45,0,0
102415,47.0905,-1019.39,0,0
103717,46.2435,-998.318,0,0
105019,49.763,-978.745,0,0
106320.175,54.6838,-962.389,0,0
107621.8,57.3082,-950.402,0,0
108923.425,55.4733,-938.29,0,0
110225.05,52.4614,-922.35,0,0
111526.675,51.8093,-904.923,0,0
112828.3,52.4183,-887.769,0,0
114129.925,54.4796,-870.894,0,0
115431.55,57.3379,-855.061,0,0
116733.175,60.8111,-840.303,0,0
118034.8,64.3483,-826.988,0,0
119336.425,67.4162,-814.993,0,0
120638.05,68.8843,-804.988,0,0
121939.675,68.0431,-792.997,0,0
123241,67.5267,-779.735,0,0
124543,67.1696,-765.887,0,0
125845,67.6005,-751.071,0,0
127146,69.4532,-736.241,0,0
128448,72.273,-722.442,0,0
129749,74.7135,-709.414,0,0
131051,76.8165,-696.845,0,0
132353,78.2848,-684.161,0,0
133654,79.3398,-670.297,0,0
134956,81.2615,-655.826,0,0
136258,83.6591,-641.217,0,0
137559,86.5703,-626.415,0,0
138860.775,89.4346,-610.917,0,0
140162.4,93.1301,-593.768,0,0
141464.025,99.4794,-575.201,0,0
142765.65,109.506,-557.491,0,0
144067.275,120.86,-541.825,0,0
145368.9,134.042,-527.232,0,0
146670.525,148.072,-513.939,0,0
147972.15,165.362,-501.676,0,0
149273.775,187.384,-491.357,0,0
150575.4,213.523,-493.419,0,0
151877.025,231.297,-507.398,0,0
153178.65,234.288,-522.771,0,0
154480,228.458,-529.676,0,0
155782,222.909,-528.777,0,0
157084,218.965,-524.346,0,0
158385,217.76,-518.048,0,0
159687,217.606,-509.589,0,0
160988,221.807,-502.219,0,0
162290,230.068,-501.829,0,0
163592,223.984,-510.596,0,0
164893,209.155,-505.883,0,0
166195,195.705,-490.054,0,0
167497,189.843,-470.029,0,0
168798,187.571,-447.039,0,0
170100,190.962,-424.642,0,0
171401.375,195.729,-400.581,0,0
172703.0,205.711,-375.421,0,0
174004.625,221.397,-350.416,0,0
175306.25,244.762,-327.838,0,0
176607.875,271.332,-311.574,0,0
177909.5,301.077,-308.763,0,0
179211.125,319.466,-308.719,0,0
180512.75,326.758,-308.154,0,0
181814.375,333.019,-291.668,0,0
183116.0,350.897,-268.373,0,0
184417.625,377.063,-245.115,0,0
185719.25,416.326,-226.375,0,0
187021,455.633,-219.655,0,0
188322,499.526,-216.432,0,0
189624,540.247,-214.579,0,0
190926,590.871,-211.728,0,0
192227,653.927,-222.283,0,0
193529,723.148,-253.587,0,0
194831,779.572,-305.732,0,0
196132,823.962,-368.985,0,0
197434,855.987,-440.469,0,0
198735,874.585,-517.601,0,0
200037,873.016,-601.768,0,0
201339,850.755,-685.836,0,0
202640.35,802.581,-755.483,0,0
203941.975,745.177,-798.267,0,0
205243.6,694.443,-827.335,0,0
206545.225,641.941,-842.477,0,0
207846.85,599.201,-847.701,0,0
209148.475,568.429,-851.042,0,0
210450.1,533.6,-860.14,0,0
211751.725,493.351,-859.481,0,0
213053.35,462.316,-848.155,0,0
214354.975,438.726,-836.757,0,0
215656.6,418.591,-826.294,0,0
216958.225,401.773,-813.886,0,0
218259.85,390.019,-801.699,0,0
219561,382.051,-791.141,0,0
220863,376.744,-782.87,0,0
222165,375.173,-776.609,0,0
223466,375.033,-777.008,0,0
224768,370.76,-780.824,0,0
226070,365.052,-784.087,0,0
227371,359.315,-789.635,0,0
228673,351.265,-798.082,0,0
229974,337.616,-807.749,0,0
231276,319.043,-813.911,0,0
232578,299.266,-815.283,0,0
233879,279.742,-813.334,0,0
235180.95,261.165,-809.218,0,0
236482.575,243.498,-802.411,0,0
237784.2,227.204,-793.926,0,0
239085.825,213.052,-784.164,0,0
240387.45,200.35,-773.646,0,0
241689.075,189.573,-762.535,0,0
242990.7,180.48,-751.884,0,0
244292.325,172.394,-742.478,0,0
245593.95,163.628,-733.769,0,0
246895.575,152.988,-724.826,0,0
248197.2,142.44,-711.932,0,0
249498.825,134.14,-697.232,0,0
250800,128.717,-681.548,0,0
252102,125.591,-666.073,0,0
253404,124.657,-650.812,0,0
254705,125.712,-636.125,0,0
256007,129.183,-622.199,0,0
257309,134.539,-610.105,0,0
258610,141.247,-600.298,0,0
259912,148.833,-591.954,0,0
261213,157.784,-586.338,0,0
262515,166.76,-584.693,0,0
263817,173.196,-586.133,0,0
265118,175.674,-589.349,0,0
266420,174.166,-589.946,0,0
267721.55,173.384,-587.831,0,0
269023.175,172.261,-584.516,0,0
270324.8,173.242,-577.401,0,0
271626.425,179.944,-571.045,0,0
272928.05,189.921,-567.921,0,0
274229.675,204.279,-570.512,0,0
275531.3,215.998,-584.731,0,0
276832.925,216.061,-604.666,0,0
278134.55,205.571,-619.364,0,0
279436.175,192.951,-627.156,0,0
280737.8,180.242,-631.741,0,0
282039.425,166.538,-633.932,0,0
283341,150.77,-631.635,0,0
284643,139.784,-624.443,0,0
285944,128.415,-618.266,0,0
287246,116.903,-606.9,0,0
288548,111.147,-589.132,0,0
289849,116.718,-571.192,0,0
291151,130.703,-563.843,0,0
292452,141.203,-567.097,0,0
293754,143.168,-575.89,0,0
295056,138.139,-577.261,0,0
296357,140.794,-578.246,0,0
297659,137.206,-586.652,0,0
298960.525,128.195,-589.068,0,0
300262.15,120.027,-588.461,0,0
301563.775,112.787,-585.295,0,0
302865.4,108.732,-581.86,0,0
304167.025,104.344,-581.303,0,0
305468.65,97.0083,-580.456,0,0
306770.275,88.7178,-576.512,0,0
308071.9,82.0326,-570.47,0,0
309373.525,76.8271,-564.122,0,0
310675.15,72.4967,-557.482,0,0
311976.775,69.3405,-550.635,0,0
313278.4,67.0698,-544.346,0,0
314580,65.1527,-538.414,0,0
315882,63.6213,-532.756,0,0
317183,62.369,-527.212,0,0
318485,61.6137,-522.104,0,0
319787,60.6603,-517.641,0,0
321088,59.3566,-512.996,0,0
322390,58.0296,-508.241,0,0
323691,56.4778,-502.785,0,0
324993,56.1417,-496.078,0,0
326295,58.4227,-490,0,0
327596,61.2772,-486.703,0,0
328898,62.7206,-484.499,0,0
330200,63.7279,-482.721,0,0
331501.125,63.9679,-481.56,0,0
332802.75,62.8895,-480.65,0,0
334104.375,60.6637,-478.643,0,0
335406.0,58.4811,-475.476,0,0
336707.625,56.6502,-471.664,0,0
338009.25,55.4702,-467.315,0,0
339310.875,54.8841,-462.892,0,0
340612.5,54.8974,-458.68,0,0
341914.125,55.1716,-454.552,0,0
343215.75,55.898,-450.668,0,0
344517.375,56.8012,-447.064,0,0
345819.0,57.9294,-443.758,0,0
347121,59.0966,-440.822,0,0
348422,60.3422,-438.052,0,0
349724,61.8459,-435.502,0,0
351025,63.5334,-433.662,0,0
352327,64.6589,-432.348,0,0
353629,65.3817,-430.971,0,0
354930,65.9474,-429.611,0,0
356232,66.5892,-428.115,0,0
357534,67.5121,-426.593,0,0
358835,68.7718,-425.644,0,0
360137,69.7069,-425.867,0,0
361438,69.4286,-426.421,0,0
362740.1,68.35,-426.598,0,0
364041.725,66.6149,-426.32,0,0
365343.35,64.6392,-425.226,0,0
366644.975,62.8,-423.31,0,0
367946.6,61.8644,-420.974,0,0
369248.225,61.6131,-419.3,0,0
370549.85,60.7918,-418.223,0,0
371851.475,59.6523,-416.846,0,0
373153.1,58.4581,-415.473,0,0
374454.725,57.1344,-413.956,0,0
375756.35,55.5208,-412.291,0,0
377057.975,54.2929,-410.133,0,0
378359.6,53.0768,-408.769,0,0
379661,50.4297,-406.898,0,0
380963,48.6762,-402.915,0,0
382264,48.8635,-400.127,0,0
383566,48.0277,-398.337,0,0
384868,46.758,-396.1,0,0
386169,45.3278,-393.54,0,0
387471,43.934,-390.399,0,0
388773,43.1497,-386.747,0,0
390074,43.3588,-383.314,0,0
391376,43.9788,-380.879,0,0
392677,43.6057,-379.383,0,0
393979,42.0987,-377.204,0,0
395280.7,40.7824,-373.825,0,0
396582.325,40.2568,-370.086,0,0
397883.95,40.2956,-366.428,0,0
399185.575,40.6937,-363.036,0,0
400006.6,41.0083,-361.034,0,0