File: Accelerated corrosion test data/2025-10-12_06-00-03/sample_7.csv
Frequency (Hz),Impedance (ohms),Phase (Radians),Temperature (C),Humidity (%)
10000.0,273.265,-12093.6,0,0
11301.625,246.374,-10698.8,0,0
12603.25,256.473,-9643.66,0,0
13904.875,209.167,-8752.36,0,0
15206.5,194.48,-8015.81,0,0
16508.125,171.292,-7374.31,0,0
17809.75,170.991,-6819.81,0,0
19111.375,180.886,-6377.62,0,0
20413.0,168.381,-5983.76,0,0
21714.625,155.65,-5641.7,0,0
23016.25,130.297,-5318.8,0,0
24317.875,122.805,-5025.65,0,0
25619.5,118.642,-4762.14,0,0
26921.1,123.597,-4516.76,0,0
28222.7,181.031,-4313.63,0,0
29524.4,136.687,-4170.04,0,0
30826,134.05,-3988.34,0,0
32127.6,117.677,-3842.57,0,0
33429.2,101.972,-3691.44,0,0
34730.9,92.6717,-3546.56,0,0
36032.5,88.6723,-3412.98,0,0
37334.1,86.1985,-3289.52,0,0
38635.7,86.672,-3172.19,0,0
39937.4,97.2777,-3072.06,0,0
41239,86.7143,-2984.38,0,0
42540.6,80.438,-2888.32,0,0
43842.225,79.4912,-2799.72,0,0
45143.85,80.9708,-2721.97,0,0
46445.475,77.5054,-2649.57,0,0
47747.1,71.2211,-2573.47,0,0
49048.725,68.195,-2503,0,0
50350.35,66.327,-2435.9,0,0
51651.975,64.6992,-2372.37,0,0
52953.6,63.8055,-2311.79,0,0
54255.225,62.519,-2254.99,0,0
55556.85,61.2939,-2200.05,0,0
56858.475,60.5107,-2147.82,0,0
58160.1,59.8012,-2097.36,0,0
59461.7,60.1945,-2049.89,0,0
60763.3,59.4362,-2006.19,0,0
62065,57.2821,-1962.84,0,0
63366.6,56.2022,-1919.99,0,0
64668.2,55.2544,-1879.38,0,0
65969.8,55.3655,-1840.87,0,0
67271.5,53.636,-1804.03,0,0
68573.1,52.5156,-1767.26,0,0
69874.7,52.0121,-1731.95,0,0
71176.3,51.8046,-1698.55,0,0
72478,50.5817,-1666.18,0,0
73779.6,49.7773,-1634.38,0,0
75081.2,49.3006,-1603.48,0,0
76382.825,48.7745,-1573.71,0,0
77684.45,48.486,-1544.83,0,0
78986.075,48.184,-1516.86,0,0
80287.7,48.0141,-1489.8,0,0
81589.325,47.7147,-1463.41,0,0
82890.95,47.4596,-1437.83,0,0
84192.575,47.5454,-1412.68,0,0
85494.2,47.7075,-1388.57,0,0
86795.825,47.6979,-1365.18,0,0
88097.45,47.8657,-1342.4,0,0
89399.075,47.5796,-1320.08,0,0
90700.7,47.9613,-1297.9,0,0
92002.3,48.3977,-1276.27,0,0
93303.9,49.0052,-1255.51,0,0
94605.6,50.3813,-1235.64,0,0
95907.2,50.4641,-1217.3,0,0
97208.8,50.0561,-1197.91,0,0
98510.4,50.9367,-1178.46,0,0
99812.1,50.4775,-1159.79,0,0
101114,52.0811,-1140.82,0,0
102415,53.6802,-1122.57,0,0
103717,56.4424,-1105.98,0,0
105019,57.329,-1090.87,0,0
106320.175,56.9551,-1074.65,0,0
107621.8,58.0092,-1058.45,0,0
108923.425,59.0841,-1042.35,0,0
110225.05,59.4699,-1025.74,0,0
111526.675,62.6057,-1008.92,0,0
112828.3,66.8806,-992.794,0,0
114129.925,71.8557,-978.804,0,0
115431.55,77.5852,-965.969,0,0
116733.175,85.4366,-957.17,0,0
118034.8,88.7209,-951.29,0,0
119336.425,91.4591,-948.504,0,0
120638.05,85.4194,-947.45,0,0
121939.675,75.6556,-937.047,0,0
123241,68.7416,-924.446,0,0
124543,64.386,-909.729,0,0
125845,60.6035,-896.114,0,0
127146,57.3915,-881.24,0,0
128448,55.8873,-866.426,0,0
129749,54.4956,-852.007,0,0
131051,53.4099,-837.439,0,0
132353,52.7402,-822.213,0,0
133654,53.3539,-806.644,0,0
134956,56.3085,-791.785,0,0
136258,61.3004,-778.556,0,0
137559,62.338,-770.978,0,0
138860.775,60.4583,-759.073,0,0
140162.4,60.9282,-745.573,0,0
141464.025,60.9805,-732.468,0,0
142765.65,62.2928,-718.43,0,0
144067.275,64.821,-705.566,0,0
145368.9,66.2054,-693.109,0,0
146670.525,67.3197,-679.981,0,0
147972.15,69.02,-666.795,0,0
149273.775,69.6039,-653.655,0,0
150575.4,70.4275,-637.791,0,0
151877.025,73.092,-620.437,0,0
153178.65,78.0707,-602.543,0,0
154480,84.8698,-584.586,0,0
155782,94.375,-567.216,0,0
157084,106.301,-551.536,0,0
158385,119.451,-539.334,0,0
159687,128.167,-531.097,0,0
160988,131.348,-516.527,0,0
162290,141.589,-492.369,0,0
163592,160.97,-468.92,0,0
164893,187.465,-450.89,0,0
166195,216.853,-432.038,0,0
167497,262.346,-419.459,0,0
168798,317.37,-425.573,0,0
170100,364.749,-456.338,0,0
171401.375,397.702,-503.288,0,0
172703.0,411.907,-563.916,0,0
174004.625,384.394,-620.24,0,0
175306.25,341.206,-634.957,0,0
176607.875,321.507,-624.969,0,0
177909.5,331.721,-626.457,0,0
179211.125,330.215,-664.27,0,0
180512.75,299.409,-685.571,0,0
181814.375,259.742,-700.722,0,0
183116.0,216.376,-689.842,0,0
184417.625,187.336,-667.599,0,0
185719.25,168.406,-644.463,0,0
187021,154.834,-617.389,0,0
188322,151.478,-592.559,0,0
189624,146.092,-575.379,0,0
190926,139.744,-553.265,0,0
192227,139.043,-528.499,0,0
193529,141.607,-503.374,0,0
194831,148.17,-478.908,0,0
196132,159.917,-457.092,0,0
197434,172.676,-438.097,0,0
198735,184.264,-420.627,0,0
200037,197.625,-400.642,0,0
201339,215.561,-379.953,0,0
202640.35,240.157,-359.316,0,0
203941.975,270.485,-343.235,0,0
205243.6,306.692,-332.629,0,0
206545.225,347.662,-335.375,0,0
207846.85,376.158,-345.664,0,0
209148.475,409.371,-345.419,0,0
210450.1,460.258,-361.707,0,0
211751.725,496.366,-408.172,0,0
213053.35,510.385,-456.778,0,0
214354.975,507.988,-499.525,0,0
215656.6,496.831,-533.058,0,0
216958.225,487.899,-564.937,0,0
218259.85,463.135,-592.144,0,0
219561,431.893,-608.022,0,0
220863,402.675,-604.485,0,0
222165,386.983,-590.68,0,0
223466,384.188,-578.541,0,0
224768,386.574,-570.615,0,0
226070,397.599,-561.694,0,0
227371,415.668,-566.075,0,0
228673,434.053,-582.199,0,0
229974,443.293,-608.623,0,0
231276,442.049,-642.716,0,0
232578,428.913,-673.755,0,0
233879,401.788,-705.379,0,0
235180.95,358.504,-719.43,0,0
236482.575,323.497,-711.005,0,0
237784.2,297.141,-703.028,0,0
239085.825,272.454,-683.336,0,0
240387.45,268.957,-663.153,0,0
241689.075,263.153,-658.559,0,0
242990.7,249.479,-648.206,0,0
244292.325,241.89,-629.32,0,0
245593.95,248.102,-614.363,0,0
246895.575,252.205,-609.704,0,0
248197.2,252.884,-604.531,0,0
249498.825,255.456,-599.018,0,0
250800,259.266,-596.082,0,0
252102,263.92,-595.556,0,0
253404,267.029,-600.137,0,0
254705,264.192,-607.27,0,0
256007,256.3,-610.733,0,0
257309,246.607,-609.906,0,0
258610,238.38,-603.522,0,0
259912,233.901,-596.442,0,0
261213,231.171,-586.031,0,0
262515,235.874,-574.726,0,0
263817,247.543,-571.033,0,0
265118,255.304,-575.985,0,0
266420,258.083,-579.842,0,0
267721.55,262.227,-585.937,0,0
269023.175,261.714,-593.641,0,0
270324.8,261.985,-597.665,0,0
271626.425,267.031,-606.02,0,0
272928.05,270.317,-628.859,0,0
274229.675,251.348,-657.487,0,0
275531.3,215.141,-670.785,0,0
276832.925,178.438,-662.672,0,0
278134.55,152.508,-640.925,0,0
279436.175,140.884,-616.94,0,0
280737.8,137.534,-596.463,0,0
282039.425,137.088,-583.1,0,0
283341,133.57,-569.466,0,0
284643,134.385,-553.321,0,0
285944,139.656,-540.159,0,0
287246,145.936,-531.559,0,0
288548,149.4,-524.738,0,0
289849,153.029,-516.013,0,0
291151,159.379,-507.029,0,0
292452,167.281,-500.966,0,0
293754,175.245,-495.818,0,0
295056,183.939,-491.158,0,0
296357,194.909,-487.64,0,0
297659,208.482,-486.867,0,0
298960.525,222.122,-490.853,0,0
300262.15,235.932,-497.877,0,0
301563.775,250.789,-509.957,0,0
302865.4,263.414,-533.64,0,0
304167.025,259.32,-563.644,0,0
305468.65,243.793,-585.502,0,0
306770.275,223.201,-599.639,0,0
308071.9,201.676,-605.132,0,0
309373.525,181.855,-604.347,0,0
310675.15,165.958,-599,0,0
311976.775,153.976,-592.771,0,0
313278.4,143.6,-586.195,0,0
314580,134.527,-578.599,0,0
315882,128.167,-569.823,0,0
317183,124.398,-562.339,0,0
318485,121.118,-555.999,0,0
319787,118.729,-549.942,0,0
321088,117.234,-545.192,0,0
322390,115.51,-541.654,0,0
323691,112.947,-538.698,0,0
324993,109.983,-535.07,0,0
326295,107.891,-531.506,0,0
327596,105.562,-528.823,0,0
328898,102.608,-526.212,0,0
330200,99.4746,-523.437,0,0
331501.125,96.0934,-520.736,0,0
332802.75,92.0132,-518.039,0,0
334104.375,87.1779,-514.459,0,0
335406.0,82.506,-509.757,0,0
336707.625,78.121,-504.16,0,0
338009.25,74.6242,-497.846,0,0
339310.875,72.0044,-491.301,0,0
340612.5,70.1218,-484.743,0,0
341914.125,68.8017,-478.059,0,0
343215.75,68.4134,-471.529,0,0
344517.375,68.7958,-465.541,0,0
345819.0,69.6265,-460.395,0,0
347121,70.2391,-456.173,0,0
348422,70.1843,-452.189,0,0
349724,69.6468,-447.687,0,0
351025,69.3016,-442.629,0,0
352327,69.9252,-436.932,0,0
353629,71.5808,-431.954,0,0
354930,73.6173,-427.916,0,0
356232,75.5735,-425.191,0,0
357534,75.8547,-423.017,0,0
358835,75.192,-419.572,0,0
360137,75.1164,-414.759,0,0
361438,76.3265,-409.684,0,0
362740.1,78.589,-405.266,0,0
364041.725,80.9627,-401.474,0,0
365343.35,83.9408,-398.255,0,0
366644.975,86.6397,-396.238,0,0
367946.6,88.836,-394.498,0,0
369248.225,90.8815,-393.196,0,0
370549.85,91.9724,-392.948,0,0
371851.475,90.9664,-391.853,0,0
373153.1,90.1131,-388.523,0,0
374454.725,90.6167,-384.651,0,0
375756.35,92.0065,-380.943,0,0
377057.975,93.4763,-377.82,0,0
378359.6,95.0281,-374.228,0,0
379661,97.4928,-370.77,0,0
380963,100.136,-368.023,0,0
382264,102.623,-365.31,0,0
383566,105.673,-362.727,0,0
384868,108.875,-360.691,0,0
386169,111.661,-358.996,0,0
387471,114.53,-357.085,0,0
388773,117.55,-354.691,0,0
390074,122.092,-352.498,0,0
391376,126.775,-351.918,0,0
392677,130.866,-351.468,0,0
393979,135.189,-351.046,0,0
395280.7,140.29,-350.569,0,0
396582.325,146.933,-350.973,0,0
397883.95,154.595,-354.178,0,0
399185.575,161.281,-360.727,0,0
400006.6,164.115,-366.535,0,0