File: Accelerated corrosion test data/2025-10-12_06-00-03/sample_4.csv
Frequency (Hz),Impedance (ohms),Phase (Radians),Temperature (C),Humidity (%)
10000.0,262.51,-11871.1,0,0
11301.625,233.544,-10517,0,0
12603.25,212.111,-9434.7,0,0
13904.875,191.864,-8555.16,0,0
15206.5,180.802,-7829.57,0,0
16508.125,182.308,-7214.45,0,0
17809.75,156.08,-6709.05,0,0
19111.375,144.824,-6251.7,0,0
20413.0,140.144,-5851.21,0,0
21714.625,145.602,-5506.21,0,0
23016.25,124.829,-5206.17,0,0
24317.875,115.892,-4922.05,0,0
25619.5,111.218,-4668.21,0,0
26921.1,106.142,-4439.22,0,0
28222.7,122.097,-4234.89,0,0
29524.4,111.545,-4057.27,0,0
30826,97.8863,-3884.53,0,0
32127.6,99.4183,-3724.2,0,0
33429.2,89.5493,-3584.22,0,0
34730.9,84.6943,-3445.74,0,0
36032.5,81.4378,-3317.84,0,0
37334.1,79.4823,-3198.95,0,0
38635.7,76.8165,-3087.52,0,0
39937.4,76.5253,-2981.8,0,0
41239,79.9135,-2887.56,0,0
42540.6,78.2787,-2799.3,0,0
43842.225,73.217,-2716.06,0,0
45143.85,70.9203,-2634.98,0,0
46445.475,70.1917,-2557.99,0,0
47747.1,69.9268,-2487.94,0,0
49048.725,65.9627,-2418.93,0,0
50350.35,64.2049,-2351.39,0,0
51651.975,63.449,-2286.65,0,0
52953.6,65.3486,-2223.99,0,0
54255.225,73.5435,-2167.4,0,0
55556.85,71.8906,-2124.53,0,0
56858.475,65.361,-2070.67,0,0
58160.1,66.4118,-2018.36,0,0
59461.7,70.4199,-1967.9,0,0
60763.3,79.1781,-1929.59,0,0
62065,69.912,-1896.71,0,0
63366.6,63.9991,-1851.27,0,0
64668.2,64.2774,-1807.88,0,0
65969.8,66.0039,-1767.39,0,0
67271.5,70.2432,-1731.15,0,0
68573.1,73.5746,-1702.15,0,0
69874.7,66.1967,-1672.19,0,0
71176.3,64.4244,-1638.04,0,0
72478,59.174,-1606.61,0,0
73779.6,57.6939,-1570.28,0,0
75081.2,59.5534,-1537.37,0,0
76382.825,62.0159,-1508.41,0,0
77684.45,64.7984,-1480.91,0,0
78986.075,63.7366,-1458.37,0,0
80287.7,60.6629,-1431.53,0,0
81589.325,60.1184,-1405.54,0,0
82890.95,58.8256,-1380.51,0,0
84192.575,57.7293,-1355.62,0,0
85494.2,56.8717,-1331.44,0,0
86795.825,56.2064,-1307.83,0,0
88097.45,54.8682,-1285.29,0,0
89399.075,53.2985,-1260.98,0,0
90700.7,53.1687,-1237.92,0,0
92002.3,53.5035,-1214.87,0,0
93303.9,54.7461,-1194.03,0,0
94605.6,53.3902,-1173.71,0,0
95907.2,52.7622,-1151.17,0,0
97208.8,53.6677,-1129.46,0,0
98510.4,54.9221,-1108.04,0,0
99812.1,57.542,-1087.35,0,0
101114,61.8004,-1068.83,0,0
102415,61.1201,-1054.47,0,0
103717,58.0111,-1031.82,0,0
105019,61.7695,-1008.2,0,0
106320.175,68.2675,-987.756,0,0
107621.8,75.0787,-969.923,0,0
108923.425,83.382,-953.216,0,0
110225.05,91.5804,-940.568,0,0
111526.675,97.7666,-929.77,0,0
112828.3,102.826,-919.99,0,0
114129.925,106.221,-911.243,0,0
115431.55,108.065,-903.022,0,0
116733.175,107.645,-894.657,0,0
118034.8,105.42,-883.882,0,0
119336.425,106.486,-869.975,0,0
120638.05,111.438,-864.719,0,0
121939.675,104.785,-858.524,0,0
123241,100.052,-846.206,0,0
124543,96.8925,-833.665,0,0
125845,94.8591,-821.38,0,0
127146,91.5502,-810.455,0,0
128448,86.7703,-798.747,0,0
129749,80.2787,-784.056,0,0
131051,75.4209,-766.406,0,0
132353,72.7641,-747.761,0,0
133654,71.9542,-728.813,0,0
134956,72.5786,-709.911,0,0
136258,74.7481,-691.423,0,0
137559,77.4441,-674.214,0,0
138860.775,79.3208,-656.395,0,0
140162.4,82.5974,-637.459,0,0
141464.025,87.5891,-618.497,0,0
142765.65,93.551,-600.218,0,0
144067.275,100.239,-581.929,0,0
145368.9,107.879,-563.395,0,0
146670.525,117.218,-544.689,0,0
147972.15,128.109,-526.677,0,0
149273.775,140.682,-508.648,0,0
150575.4,155.55,-490.825,0,0
151877.025,174.159,-474.481,0,0
153178.65,196.167,-462.41,0,0
154480,217.84,-457.097,0,0
155782,234.724,-453.31,0,0
157084,250.257,-451.401,0,0
158385,265.092,-445.846,0,0
159687,285.593,-443.197,0,0
160988,303.652,-451.165,0,0
162290,309.866,-456.981,0,0
163592,314.938,-456.179,0,0
164893,324.291,-450.21,0,0
166195,339.286,-444.048,0,0
167497,364.974,-442.358,0,0
168798,392.28,-458.393,0,0
170100,409.106,-486.596,0,0
171401.375,406.414,-524.782,0,0
172703.0,381.822,-550.405,0,0
174004.625,348.578,-556.383,0,0
175306.25,320.972,-545.122,0,0
176607.875,302.861,-523.721,0,0
177909.5,296.215,-500.147,0,0
179211.125,295.612,-479.217,0,0
180512.75,299.153,-460.274,0,0
181814.375,303.339,-443.634,0,0
183116.0,306.523,-426.563,0,0
184417.625,310.877,-405.928,0,0
185719.25,319.003,-382.384,0,0
187021,331.844,-357.06,0,0
188322,349.928,-330.429,0,0
189624,374.792,-302.987,0,0
190926,408.467,-276.839,0,0
192227,450.937,-255.147,0,0
193529,501.285,-241.233,0,0
194831,556.498,-236.563,0,0
196132,615.155,-239.903,0,0
197434,680.66,-252.783,0,0
198735,752.689,-283.559,0,0
200037,821.888,-341.149,0,0
201339,870.84,-422.252,0,0
202640.35,890.058,-511.162,0,0
203941.975,887.808,-593.678,0,0
205243.6,868.263,-669.81,0,0
206545.225,838.199,-733.355,0,0
207846.85,801.088,-795.462,0,0
209148.475,741.948,-842.366,0,0
210450.1,683.175,-863.23,0,0
211751.725,632.953,-869.283,0,0
213053.35,594.914,-865.763,0,0
214354.975,566.916,-859.893,0,0
215656.6,551.394,-859.386,0,0
216958.225,531.592,-868.181,0,0
218259.85,509.358,-872.527,0,0
219561,488.426,-876.909,0,0
220863,465.898,-882.325,0,0
222165,442.198,-884.869,0,0
223466,419.288,-885.167,0,0
224768,397.232,-885.898,0,0
226070,372.249,-886.735,0,0
227371,344.086,-883.092,0,0
228673,315.825,-873.569,0,0
229974,291.585,-857.526,0,0
231276,273.136,-839.567,0,0
232578,259.189,-821.844,0,0
233879,248.331,-804.564,0,0
235180.95,240.244,-788.502,0,0
236482.575,234.051,-774.331,0,0
237784.2,228.524,-759.739,0,0
239085.825,226.832,-746.526,0,0
240387.45,225.891,-736.675,0,0
241689.075,224.246,-729.123,0,0
242990.7,221.257,-723.121,0,0
244292.325,216.256,-717.426,0,0
245593.95,209.656,-709.6,0,0
246895.575,204.202,-699.701,0,0
248197.2,201.523,-689.327,0,0
249498.825,199.112,-680.849,0,0
250800,196.488,-672.822,0,0
252102,192.931,-665.2,0,0
253404,187.016,-655.721,0,0
254705,182.572,-641.912,0,0
256007,180.694,-625.887,0,0
257309,183.794,-607.541,0,0
258610,192.567,-589.775,0,0
259912,207.151,-574.742,0,0
261213,226.295,-565.513,0,0
262515,246.554,-563.479,0,0
263817,267.261,-566.849,0,0
265118,286.262,-578.539,0,0
266420,298.518,-596.663,0,0
267721.55,303.245,-617.923,0,0
269023.175,300.428,-638.968,0,0
270324.8,287.553,-656.278,0,0
271626.425,275.026,-663.39,0,0
272928.05,265.631,-671.059,0,0
274229.675,253.733,-679.778,0,0
275531.3,236.222,-686.779,0,0
276832.925,214.968,-686.026,0,0
278134.55,195.83,-676.298,0,0
279436.175,184.888,-660.566,0,0
280737.8,183.426,-648.284,0,0
282039.425,181.993,-641.424,0,0
283341,180.731,-633.935,0,0
284643,181.474,-630.771,0,0
285944,178.476,-629.556,0,0
287246,171.417,-625.674,0,0
288548,165.671,-616.333,0,0
289849,166.32,-602.587,0,0
291151,176.052,-592.976,0,0
292452,188.659,-592.593,0,0
293754,197.763,-601.186,0,0
295056,198.432,-613.943,0,0
296357,190.573,-624.699,0,0
297659,178.864,-628.769,0,0
298960.525,168.804,-628.348,0,0
300262.15,160.199,-626.525,0,0
301563.775,151.995,-623.816,0,0
302865.4,144.621,-619.494,0,0
304167.025,138.197,-614.888,0,0
305468.65,132.431,-609.25,0,0
306770.275,128.186,-603.029,0,0
308071.9,125.879,-597.248,0,0
309373.525,124.24,-593.246,0,0
310675.15,121.59,-590.324,0,0
311976.775,117.93,-586.624,0,0
313278.4,114.793,-582.135,0,0
314580,112.702,-577.334,0,0
315882,111.508,-573.35,0,0
317183,110.506,-570.345,0,0
318485,109.044,-568.405,0,0
319787,106.956,-567.371,0,0
321088,102.87,-566.713,0,0
322390,96.7996,-565.042,0,0
323691,89.6597,-560.088,0,0
324993,84.8823,-552.897,0,0
326295,82.1598,-546.178,0,0
327596,79.5803,-539.773,0,0
328898,77.7611,-532.67,0,0
330200,77.4513,-525.433,0,0
331501.125,78.7432,-519.692,0,0
332802.75,80.0456,-515.722,0,0
334104.375,80.1414,-512.788,0,0
335406.0,78.9018,-509.671,0,0
336707.625,76.9349,-505.695,0,0
338009.25,75.3042,-499.95,0,0
339310.875,75.0374,-493.697,0,0
340612.5,76.2475,-487.356,0,0
341914.125,79.1415,-481.585,0,0
343215.75,83.5771,-477.914,0,0
344517.375,87.228,-477.065,0,0
345819.0,89.1265,-477.432,0,0
347121,89.1919,-477.93,0,0
348422,87.8934,-477.616,0,0
349724,86.0071,-476.417,0,0
351025,83.9041,-474.172,0,0
352327,82.0695,-471.186,0,0
353629,80.8852,-467.381,0,0
354930,81.0266,-463.758,0,0
356232,81.3073,-461.301,0,0
357534,80.7531,-459.242,0,0
358835,79.4221,-456.74,0,0
360137,78.0084,-452.98,0,0
361438,77.7342,-448.652,0,0
362740.1,78.463,-444.623,0,0
364041.725,79.3883,-441.483,0,0
365343.35,79.6832,-438.507,0,0
366644.975,79.7979,-434.608,0,0
367946.6,81.0761,-429.846,0,0
369248.225,84.0092,-425.315,0,0
370549.85,88.5776,-422.152,0,0
371851.475,93.7144,-420.878,0,0
373153.1,98.5717,-422.316,0,0
374454.725,100.982,-425.64,0,0
375756.35,100.721,-428.511,0,0
377057.975,99.5327,-429.862,0,0
378359.6,98.7251,-430.558,0,0
379661,97.2562,-431.404,0,0
380963,95.5682,-431.179,0,0
382264,94.3562,-430.276,0,0
383566,94.9513,-430.364,0,0
384868,93.793,-433.228,0,0
386169,89.1156,-435.309,0,0
387471,83.0645,-433.961,0,0
388773,78.724,-429.668,0,0
390074,77.7346,-424.967,0,0
391376,78.6104,-422.833,0,0
392677,77.833,-423.553,0,0
393979,73.7961,-423.623,0,0
395280.7,68.998,-421.054,0,0
396582.325,65.2585,-416.718,0,0
397883.95,62.9018,-411.955,0,0
399185.575,61.1916,-407.112,0,0
400006.6,60.4422,-403.973,0,0