File: Accelerated corrosion test data/2025-10-12_06-00-03/sample_1.csv
Frequency (Hz),Impedance (ohms),Phase (Radians),Temperature (C),Humidity (%)
10000.0,239.404,-12194,0,0
11301.625,212.673,-10800.5,0,0
12603.25,193.955,-9701.51,0,0
13904.875,180.659,-8778.61,0,0
15206.5,181.452,-8045.17,0,0
16508.125,154.615,-7422.42,0,0
17809.75,146.698,-6887.68,0,0
19111.375,135.556,-6418.75,0,0
20413.0,153.43,-5976.66,0,0
21714.625,137.014,-5659.8,0,0
23016.25,121.743,-5357.36,0,0
24317.875,112.441,-5064.95,0,0
25619.5,105.044,-4800.74,0,0
26921.1,113.063,-4552.14,0,0
28222.7,109.767,-4348.78,0,0
29524.4,107.08,-4182.92,0,0
30826,100.537,-3995.96,0,0
32127.6,97.7164,-3837.35,0,0
33429.2,88.7642,-3694.65,0,0
34730.9,81.5626,-3552.56,0,0
36032.5,77.7845,-3421.65,0,0
37334.1,75.0437,-3299.35,0,0
38635.7,72.7511,-3185.91,0,0
39937.4,71.108,-3079.41,0,0
41239,71.9302,-2980.54,0,0
42540.6,70.3491,-2888.45,0,0
43842.225,67.8199,-2801.78,0,0
45143.85,68.3527,-2720.34,0,0
46445.475,65.3789,-2643.74,0,0
47747.1,63.7269,-2570.33,0,0
49048.725,61.1904,-2500.18,0,0
50350.35,59.4534,-2433.73,0,0
51651.975,58.6796,-2370.12,0,0
52953.6,57.5459,-2309.22,0,0
54255.225,56.6954,-2252.32,0,0
55556.85,55.8431,-2196.87,0,0
56858.475,54.7717,-2143.92,0,0
58160.1,54.4976,-2093.39,0,0
59461.7,54.3872,-2045.59,0,0
60763.3,54.4096,-1999.53,0,0
62065,53.1531,-1955.74,0,0
63366.6,52.4639,-1912.28,0,0
64668.2,52.8835,-1870.21,0,0
65969.8,54.9312,-1832.24,0,0
67271.5,53.6842,-1796.07,0,0
68573.1,53.1839,-1760.4,0,0
69874.7,52.112,-1726.52,0,0
71176.3,50.3485,-1691.76,0,0
72478,48.438,-1658.23,0,0
73779.6,48.071,-1624.76,0,0
75081.2,48.5598,-1592.61,0,0
76382.825,49.2604,-1561.52,0,0
77684.45,50.2229,-1532.22,0,0
78986.075,51.8612,-1504.62,0,0
80287.7,51.1981,-1478.2,0,0
81589.325,50.6378,-1450.4,0,0
82890.95,51.26,-1423.52,0,0
84192.575,52.8009,-1397.53,0,0
85494.2,54.9299,-1372.72,0,0
86795.825,56.0834,-1349.76,0,0
88097.45,56.2969,-1326.59,0,0
89399.075,58.0968,-1301.83,0,0
90700.7,61.4144,-1278.66,0,0
92002.3,67.8812,-1257.72,0,0
93303.9,75.1559,-1240.8,0,0
94605.6,73.6076,-1233.73,0,0
95907.2,66.9662,-1214.95,0,0
97208.8,64.7079,-1194.42,0,0
98510.4,64.2065,-1173.67,0,0
99812.1,63.2135,-1154.11,0,0
101114,63.37,-1134.06,0,0
102415,63.2934,-1112.71,0,0
103717,68.2819,-1091.32,0,0
105019,75.1519,-1073.94,0,0
106320.175,81.3169,-1057.61,0,0
107621.8,87.8201,-1045.28,0,0
108923.425,92.3817,-1034.67,0,0
110225.05,94.0981,-1026.59,0,0
111526.675,93.9706,-1014.09,0,0
112828.3,96.0659,-1004.49,0,0
114129.925,95.028,-996.646,0,0
115431.55,91.2315,-986.831,0,0
116733.175,86.3859,-974.35,0,0
118034.8,82.5129,-959.821,0,0
119336.425,81.0468,-944.208,0,0
120638.05,81.499,-930.053,0,0
121939.675,80.4587,-917.442,0,0
123241,79.1775,-903.105,0,0
124543,78.8196,-888.102,0,0
125845,79.6785,-873.382,0,0
127146,81.0048,-859.101,0,0
128448,82.9224,-844.665,0,0
129749,85.5398,-830.67,0,0
131051,90.5169,-817.48,0,0
132353,94.6646,-807.203,0,0
133654,97.3222,-796.753,0,0
134956,99.8178,-786.261,0,0
136258,102.663,-775.135,0,0
137559,107.58,-765.474,0,0
138860.775,109.656,-759.209,0,0
140162.4,109.618,-750.5,0,0
141464.025,109.473,-740.473,0,0
142765.65,110.168,-729.655,0,0
144067.275,111.272,-718.209,0,0
145368.9,114.116,-706.904,0,0
146670.525,116.768,-697.154,0,0
147972.15,119.132,-687.839,0,0
149273.775,121.301,-677.239,0,0
150575.4,123.027,-669.244,0,0
151877.025,121.743,-657.649,0,0
153178.65,121.794,-642.955,0,0
154480,125.752,-626.219,0,0
155782,133.385,-609.662,0,0
157084,145.305,-594.906,0,0
158385,158.142,-585.499,0,0
159687,168.348,-575.085,0,0
160988,186.25,-564.574,0,0
162290,205.269,-564.966,0,0
163592,216.588,-567.36,0,0
164893,228.27,-569.813,0,0
166195,240.242,-575.837,0,0
167497,245.853,-587.417,0,0
168798,244.308,-598.827,0,0
170100,234.938,-604.845,0,0
171401.375,226.9,-602.158,0,0
172703.0,222.352,-597.64,0,0
174004.625,218.767,-592.202,0,0
175306.25,217.763,-586.532,0,0
176607.875,218.205,-582.545,0,0
177909.5,217.307,-579.809,0,0
179211.125,213.055,-578.581,0,0
180512.75,206.774,-574.75,0,0
181814.375,199.099,-566.577,0,0
183116.0,192.909,-556.221,0,0
184417.625,187.23,-542.307,0,0
185719.25,185.753,-525.388,0,0
187021,187.692,-509.773,0,0
188322,191.48,-495.204,0,0
189624,195.11,-480.958,0,0
190926,199.808,-465.455,0,0
192227,205.657,-449.068,0,0
193529,214.496,-432.141,0,0
194831,224.95,-415.476,0,0
196132,238.201,-398.129,0,0
197434,254.348,-380.273,0,0
198735,275.063,-363.881,0,0
200037,296.724,-350.316,0,0
201339,322.232,-333.794,0,0
202640.35,357.79,-318.754,0,0
203941.975,400.941,-313.475,0,0
205243.6,452.878,-321.141,0,0
206545.225,496.768,-350.644,0,0
207846.85,525.417,-389.809,0,0
209148.475,538.392,-429.055,0,0
210450.1,536.905,-464.582,0,0
211751.725,527.233,-482.53,0,0
213053.35,525.338,-487.151,0,0
214354.975,537.722,-495.817,0,0
215656.6,548.698,-510.145,0,0
216958.225,556.616,-526.103,0,0
218259.85,570.226,-538.523,0,0
219561,586.352,-557.489,0,0
220863,605.058,-583.857,0,0
222165,622.884,-621.547,0,0
223466,627.89,-671.447,0,0
224768,617.517,-720.789,0,0
226070,596.622,-767.344,0,0
227371,565.019,-809.826,0,0
228673,521.097,-842.325,0,0
229974,473.379,-858.324,0,0
231276,430.177,-861.771,0,0
232578,394.49,-857.322,0,0
233879,366.792,-851.408,0,0
235180.95,341.802,-846.801,0,0
236482.575,317.427,-841.413,0,0
237784.2,293.964,-833.976,0,0
239085.825,273.138,-824.65,0,0
240387.45,253.691,-813.917,0,0
241689.075,237.073,-802.626,0,0
242990.7,222.543,-790.297,0,0
244292.325,210.042,-778.683,0,0
245593.95,198.192,-767.706,0,0
246895.575,186.701,-756.192,0,0
248197.2,176.713,-743.472,0,0
249498.825,168.505,-730.953,0,0
250800,161.519,-718.781,0,0
252102,155.207,-706.795,0,0
253404,149.655,-694.303,0,0
254705,145.697,-681.438,0,0
256007,143.704,-669.179,0,0
257309,142.357,-657.618,0,0
258610,141.909,-646.123,0,0
259912,143.638,-634.451,0,0
261213,147.749,-624.613,0,0
262515,152.874,-617.174,0,0
263817,158.414,-612.016,0,0
265118,164.237,-608.855,0,0
266420,170.962,-609.541,0,0
267721.55,173.396,-615.815,0,0
269023.175,168.527,-622.174,0,0
270324.8,158.475,-623.435,0,0
271626.425,148.718,-618.517,0,0
272928.05,142.179,-609.956,0,0
274229.675,139.866,-600.558,0,0
275531.3,139.853,-593.08,0,0
276832.925,140.676,-586.654,0,0
278134.55,142.975,-581.719,0,0
279436.175,144.755,-579.01,0,0
280737.8,145.549,-577.653,0,0
282039.425,144.764,-577.152,0,0
283341,141.711,-575.878,0,0
284643,137.878,-572.799,0,0
285944,134.774,-568.411,0,0
287246,131.324,-563.105,0,0
288548,129.336,-555.386,0,0
289849,131.263,-547.796,0,0
291151,134.216,-543.473,0,0
292452,135.982,-540.983,0,0
293754,135.113,-538.63,0,0
295056,133.558,-532.598,0,0
296357,136.188,-524.983,0,0
297659,141.24,-520.213,0,0
298960.525,146.053,-516.755,0,0
300262.15,151.403,-514.456,0,0
301563.775,157.146,-512.898,0,0
302865.4,164.238,-513.636,0,0
304167.025,169.835,-517.312,0,0
305468.65,173.675,-521.846,0,0
306770.275,176.794,-527.147,0,0
308071.9,178.035,-534.357,0,0
309373.525,176.337,-541.263,0,0
310675.15,173.907,-546.914,0,0
311976.775,170.154,-553.584,0,0
313278.4,163.443,-559.491,0,0
314580,155.077,-562.568,0,0
315882,147.343,-563.642,0,0
317183,139.581,-564.032,0,0
318485,131.659,-563.121,0,0
319787,123.899,-560.753,0,0
321088,116.725,-556.975,0,0
322390,110.898,-552.27,0,0
323691,106.211,-546.889,0,0
324993,103.169,-541.434,0,0
326295,101.403,-536.833,0,0
327596,99.8254,-533.214,0,0
328898,98.5806,-530.401,0,0
330200,97.0049,-528.405,0,0
331501.125,94.6791,-526.925,0,0
332802.75,91.4404,-525.237,0,0
334104.375,87.9488,-522.993,0,0
335406.0,84.1883,-520.206,0,0
336707.625,80.5601,-516.853,0,0
338009.25,77.1883,-513.02,0,0
339310.875,74.2108,-508.966,0,0
340612.5,71.5988,-504.754,0,0
341914.125,69.3931,-500.716,0,0
343215.75,67.2049,-496.593,0,0
344517.375,65.1074,-492.516,0,0
345819.0,63.0467,-488.309,0,0
347121,61.2686,-483.703,0,0
348422,59.7957,-479.042,0,0
349724,58.8438,-474.34,0,0
351025,58.2249,-469.911,0,0
352327,57.7766,-465.615,0,0
353629,57.4339,-461.543,0,0
354930,57.1092,-457.567,0,0
356232,56.8977,-453.446,0,0
357534,56.9927,-449.546,0,0
358835,57.0981,-445.876,0,0
360137,57.27,-442.232,0,0
361438,57.6051,-438.648,0,0
362740.1,57.8384,-435.265,0,0
364041.725,58.2289,-431.725,0,0
365343.35,58.7874,-428.33,0,0
366644.975,59.1744,-425.017,0,0
367946.6,59.4659,-421.473,0,0
369248.225,59.9605,-417.227,0,0
370549.85,61.7583,-412.528,0,0
371851.475,64.8066,-408.699,0,0
373153.1,68.3707,-406.135,0,0
374454.725,71.836,-404.745,0,0
375756.35,74.6401,-404.354,0,0
377057.975,76.6638,-404.289,0,0
378359.6,78.3833,-404.219,0,0
379661,79.7103,-404.428,0,0
380963,81.12,-404.463,0,0
382264,82.8214,-405.97,0,0
383566,82.5683,-408.302,0,0
384868,80.7974,-410.117,0,0
386169,78.1397,-410.854,0,0
387471,75.0212,-410.481,0,0
388773,72.2312,-408.734,0,0
390074,70.4486,-406.658,0,0
391376,69.0494,-404.942,0,0
392677,67.4559,-403.439,0,0
393979,65.4211,-401.835,0,0
395280.7,63.0968,-399.555,0,0
396582.325,61.0427,-396.481,0,0
397883.95,59.6047,-393.107,0,0
399185.575,58.5414,-389.782,0,0
400006.6,58.0063,-387.588,0,0