File: Accelerated corrosion test data/2025-10-12_06-00-03/sample_3.csv
Frequency (Hz),Impedance (ohms),Phase (Radians),Temperature (C),Humidity (%)
10000.0,249.763,-11800.2,0,0
11301.625,222.447,-10451.9,0,0
12603.25,201.587,-9380.2,0,0
13904.875,184.157,-8506.14,0,0
15206.5,172.042,-7776,0,0
16508.125,160.645,-7180.69,0,0
17809.75,155.503,-6650.92,0,0
19111.375,145.188,-6199.76,0,0
20413.0,158.716,-5800.16,0,0
21714.625,137.522,-5477.84,0,0
23016.25,127.566,-5171.93,0,0
24317.875,118.459,-4892.77,0,0
25619.5,112.356,-4644.92,0,0
26921.1,107.646,-4414.39,0,0
28222.7,102.984,-4207.81,0,0
29524.4,107.899,-4030.32,0,0
30826,100.806,-3858.53,0,0
32127.6,100.648,-3693.89,0,0
33429.2,98.7832,-3568.54,0,0
34730.9,87.314,-3431.28,0,0
36032.5,82.789,-3303.04,0,0
37334.1,79.7148,-3185.29,0,0
38635.7,77.3165,-3075.35,0,0
39937.4,75.1007,-2972.57,0,0
41239,73.8197,-2875.47,0,0
42540.6,72.8317,-2786.01,0,0
43842.225,71.2889,-2700.33,0,0
45143.85,70.613,-2620.66,0,0
46445.475,69.2488,-2544.8,0,0
47747.1,69.5962,-2472.16,0,0
49048.725,68.1508,-2406.6,0,0
50350.35,66.191,-2341.64,0,0
51651.975,65.6717,-2278.78,0,0
52953.6,65.934,-2219,0,0
54255.225,68.7734,-2164.08,0,0
55556.85,66.2539,-2116.6,0,0
56858.475,61.3585,-2063.82,0,0
58160.1,60.6901,-2011.77,0,0
59461.7,61.2778,-1962.64,0,0
60763.3,62.4928,-1915.91,0,0
62065,64.5839,-1871.13,0,0
63366.6,68.306,-1827.37,0,0
64668.2,76.9952,-1785.64,0,0
65969.8,91.2442,-1760.05,0,0
67271.5,75.5392,-1734.79,0,0
68573.1,75.8621,-1697.16,0,0
69874.7,75.5435,-1668.14,0,0
71176.3,70.5602,-1637.6,0,0
72478,69.048,-1604.82,0,0
73779.6,67.556,-1576.52,0,0
75081.2,63.9769,-1548.31,0,0
76382.825,60.4291,-1519.12,0,0
77684.45,57.8975,-1490.18,0,0
78986.075,55.6555,-1461.69,0,0
80287.7,54.1054,-1433.65,0,0
81589.325,53.1224,-1406.48,0,0
82890.95,52.4997,-1379.92,0,0
84192.575,52.2253,-1354.31,0,0
85494.2,52.1768,-1329.28,0,0
86795.825,52.2529,-1304.98,0,0
88097.45,52.8378,-1281.09,0,0
89399.075,54.1367,-1257.4,0,0
90700.7,56.434,-1235.64,0,0
92002.3,58.8393,-1214.83,0,0
93303.9,61.7614,-1195.96,0,0
94605.6,62.4439,-1181.36,0,0
95907.2,57.4795,-1163.7,0,0
97208.8,56.1678,-1142.56,0,0
98510.4,55.9558,-1123,0,0
99812.1,55.4076,-1104.08,0,0
101114,54.9886,-1084.36,0,0
102415,56.2302,-1063.95,0,0
103717,60.1876,-1046.14,0,0
105019,63.507,-1032.06,0,0
106320.175,62.8556,-1018.39,0,0
107621.8,60.4752,-1002.79,0,0
108923.425,58.6945,-985.259,0,0
110225.05,58.7359,-966.751,0,0
111526.675,60.9604,-948.822,0,0
112828.3,63.1565,-932.883,0,0
114129.925,64.7024,-916.91,0,0
115431.55,66.6725,-900.052,0,0
116733.175,70.3403,-883.397,0,0
118034.8,76.2731,-867.511,0,0
119336.425,82.6785,-855.822,0,0
120638.05,88.7615,-849.21,0,0
121939.675,86.1295,-841.043,0,0
123241,86.3925,-827.673,0,0
124543,88.0341,-816.306,0,0
125845,89.3514,-805.895,0,0
127146,88.9264,-796.247,0,0
128448,87.2808,-785.411,0,0
129749,85.6635,-772.524,0,0
131051,86.5695,-759.502,0,0
132353,86.1811,-748.538,0,0
133654,85.5182,-736.591,0,0
134956,83.9889,-724.15,0,0
136258,82.5807,-710.725,0,0
137559,82.3985,-695.566,0,0
138860.775,83.616,-682.076,0,0
140162.4,82.7559,-668.74,0,0
141464.025,82.4734,-654.483,0,0
142765.65,81.8224,-638.632,0,0
144067.275,82.052,-621.549,0,0
145368.9,83.6747,-603.448,0,0
146670.525,86.38,-584.749,0,0
147972.15,90.5106,-564.884,0,0
149273.775,97.0524,-544.771,0,0
150575.4,107.404,-524.467,0,0
151877.025,120.05,-507.619,0,0
153178.65,132.733,-493.808,0,0
154480,142.871,-481.951,0,0
155782,150.555,-465.7,0,0
157084,162.571,-448.428,0,0
158385,179.364,-436.649,0,0
159687,183.785,-422.944,0,0
160988,199.025,-394.24,0,0
162290,224.978,-369.557,0,0
163592,260.166,-349.052,0,0
164893,307.456,-337.455,0,0
166195,360.074,-349.045,0,0
167497,399.797,-381.984,0,0
168798,420.757,-417.297,0,0
170100,421.807,-458.601,0,0
171401.375,406.962,-476.18,0,0
172703.0,401.182,-479.091,0,0
174004.625,410.59,-487.311,0,0
175306.25,414.029,-505.277,0,0
176607.875,408.227,-523.497,0,0
177909.5,387.673,-540.224,0,0
179211.125,364.62,-534.164,0,0
180512.75,359.42,-520.671,0,0
181814.375,363.467,-516.27,0,0
183116.0,357.274,-522.995,0,0
184417.625,342.031,-521.082,0,0
185719.25,328.201,-507.973,0,0
187021,322.428,-485.162,0,0
188322,328.858,-466.016,0,0
189624,334.204,-452.043,0,0
190926,343.866,-437.35,0,0
192227,353.043,-423.99,0,0
193529,363.892,-406.151,0,0
194831,386.622,-388.247,0,0
196132,419.86,-382.997,0,0
197434,441.964,-395.634,0,0
198735,454.49,-400.3,0,0
200037,466.804,-404.07,0,0
201339,472.264,-401.902,0,0
202640.35,490.673,-392.536,0,0
203941.975,519.977,-391.098,0,0
205243.6,548.484,-402.763,0,0
206545.225,563.338,-420.529,0,0
207846.85,580.107,-420.337,0,0
209148.475,611.951,-428.996,0,0
210450.1,644.559,-450.556,0,0
211751.725,671.646,-482.142,0,0
213053.35,692.237,-517.45,0,0
214354.975,706.83,-559.342,0,0
215656.6,715.143,-604.508,0,0
216958.225,711.477,-652.108,0,0
218259.85,697.38,-694.887,0,0
219561,678.927,-731.534,0,0
220863,659.074,-769.864,0,0
222165,629.23,-805.931,0,0
223466,585.321,-833.165,0,0
224768,542.628,-835.766,0,0
226070,520.073,-831.648,0,0
227371,504.17,-840.287,0,0
228673,479.705,-853.278,0,0
229974,451.1,-859.099,0,0
231276,423.591,-861.04,0,0
232578,397.901,-859.653,0,0
233879,373.483,-856.682,0,0
235180.95,350.515,-852.184,0,0
236482.575,326.819,-847.511,0,0
237784.2,302.562,-839.14,0,0
239085.825,278.622,-825.533,0,0
240387.45,260.849,-807.766,0,0
241689.075,247.049,-790.396,0,0
242990.7,238.408,-772.133,0,0
244292.325,233.287,-757.41,0,0
245593.95,228.202,-745.59,0,0
246895.575,223.072,-733.882,0,0
248197.2,218.745,-722.196,0,0
249498.825,217.772,-710.972,0,0
250800,216.48,-704.976,0,0
252102,210.556,-699.232,0,0
253404,202.191,-689.135,0,0
254705,197.076,-674.117,0,0
256007,197.345,-657.276,0,0
257309,205.041,-642.966,0,0
258610,213.504,-634.53,0,0
259912,224.367,-626.596,0,0
261213,239.703,-627.183,0,0
262515,249.962,-638.744,0,0
263817,249.244,-653.113,0,0
265118,239.285,-664.345,0,0
266420,224.746,-667.75,0,0
267721.55,210.858,-663.559,0,0
269023.175,201.489,-654.697,0,0
270324.8,196.018,-645.736,0,0
271626.425,193.923,-636.14,0,0
272928.05,194.103,-629.433,0,0
274229.675,192.909,-621.879,0,0
275531.3,196.177,-613.413,0,0
276832.925,203.777,-608.78,0,0
278134.55,211.345,-610.532,0,0
279436.175,215.299,-617.06,0,0
280737.8,213.132,-625.068,0,0
282039.425,206.656,-630.348,0,0
283341,198.165,-632.364,0,0
284643,189.148,-631.267,0,0
285944,180.996,-627.077,0,0
287246,175.222,-620.354,0,0
288548,173.725,-613.595,0,0
289849,173.534,-610.29,0,0
291151,171.833,-608.103,0,0
292452,168.737,-605.485,0,0
293754,166.797,-600.296,0,0
295056,168.467,-596.187,0,0
296357,171.071,-596.059,0,0
297659,171.131,-598.859,0,0
298960.525,167.831,-601.834,0,0
300262.15,162.656,-603.442,0,0
301563.775,156.395,-603.534,0,0
302865.4,149.728,-601.821,0,0
304167.025,143.602,-598.759,0,0
305468.65,138.081,-594.403,0,0
306770.275,133.942,-589.139,0,0
308071.9,131.664,-584.3,0,0
309373.525,129.793,-581.034,0,0
310675.15,127.041,-578.544,0,0
311976.775,123.137,-575.802,0,0
313278.4,118.553,-571.496,0,0
314580,115.016,-565.612,0,0
315882,113.659,-558.8,0,0
317183,114.386,-553.52,0,0
318485,115.054,-550.285,0,0
319787,114.969,-547.435,0,0
321088,115.144,-544.483,0,0
322390,116.121,-542.345,0,0
323691,116.697,-542.355,0,0
324993,115.388,-543.287,0,0
326295,112.372,-543.843,0,0
327596,108.08,-543.335,0,0
328898,103.565,-541.413,0,0
330200,99.4262,-538.774,0,0
331501.125,95.2913,-535.918,0,0
332802.75,90.9108,-532.373,0,0
334104.375,86.4696,-527.952,0,0
335406.0,82.7534,-522.483,0,0
336707.625,80.046,-516.495,0,0
338009.25,78.0107,-510.464,0,0
339310.875,76.6509,-504.014,0,0
340612.5,76.7558,-497.183,0,0
341914.125,78.6015,-491.347,0,0
343215.75,81.2088,-487.492,0,0
344517.375,83.1249,-485.35,0,0
345819.0,83.3955,-483.829,0,0
347121,82.9288,-481.593,0,0
348422,82.2682,-478.899,0,0
349724,81.8499,-475.503,0,0
351025,82.6148,-472.01,0,0
352327,84.3711,-469.981,0,0
353629,84.6472,-469.722,0,0
354930,83.1499,-468.822,0,0
356232,81.4636,-466.734,0,0
357534,79.8053,-464.01,0,0
358835,78.5961,-460.521,0,0
360137,78.3914,-457.09,0,0
361438,78.4168,-454.213,0,0
362740.1,78.2533,-451.425,0,0
364041.725,78.7082,-448.137,0,0
365343.35,80.2737,-446.13,0,0
366644.975,80.6502,-445.869,0,0
367946.6,78.8884,-445.209,0,0
369248.225,76.5027,-442.514,0,0
370549.85,76.0134,-438.031,0,0
371851.475,77.7737,-435.358,0,0
373153.1,78.2273,-435.078,0,0
374454.725,76.4534,-433.935,0,0
375756.35,74.5674,-431.3,0,0
377057.975,73.6677,-427.555,0,0
378359.6,74.0645,-424.022,0,0
379661,75.0526,-421.411,0,0
380963,75.8939,-419.716,0,0
382264,76.0255,-418.31,0,0
383566,75.8066,-417.021,0,0
384868,74.9514,-415.726,0,0
386169,73.695,-413.732,0,0
387471,72.4783,-411.169,0,0
388773,71.337,-408.008,0,0
390074,70.9365,-404.125,0,0
391376,71.5413,-400.042,0,0
392677,73.3005,-396.391,0,0
393979,75.7929,-393.941,0,0
395280.7,78.1865,-392.705,0,0
396582.325,80.0382,-392.32,0,0
397883.95,81.1517,-392.719,0,0
399185.575,80.9532,-393.272,0,0
400006.6,80.395,-393.301,0,0