File: Accelerated corrosion test data/2025-10-21_06-00-04/sample_1.csv
Frequency (Hz),Impedance (ohms),Phase (Radians),Temperature (C),Humidity (%)
10000.0,239.847,-12236.1,0,0
11301.625,213.044,-10837.9,0,0
12603.25,194.247,-9734.18,0,0
13904.875,181.105,-8807.61,0,0
15206.5,189.955,-8074.59,0,0
16508.125,153.958,-7448.73,0,0
17809.75,145.678,-6909.8,0,0
19111.375,134.927,-6440.76,0,0
20413.0,156.417,-5994.88,0,0
21714.625,135.789,-5678.82,0,0
23016.25,121.744,-5376.68,0,0
24317.875,112.435,-5083.11,0,0
25619.5,104.15,-4817.41,0,0
26921.1,113.816,-4566.41,0,0
28222.7,110.163,-4363.68,0,0
29524.4,107.712,-4198.9,0,0
30826,100.537,-4009.49,0,0
32127.6,97.2787,-3852.86,0,0
33429.2,88.8222,-3707.51,0,0
34730.9,81.8173,-3565.53,0,0
36032.5,77.5164,-3434.08,0,0
37334.1,74.8115,-3311.4,0,0
38635.7,72.4981,-3197.63,0,0
39937.4,70.5016,-3090.51,0,0
41239,72.1944,-2991.39,0,0
42540.6,70.3704,-2898.58,0,0
43842.225,67.196,-2812.16,0,0
45143.85,67.9257,-2730.37,0,0
46445.475,64.7219,-2653.27,0,0
47747.1,63.804,-2579.75,0,0
49048.725,61.0603,-2509.38,0,0
50350.35,59.3344,-2442.67,0,0
51651.975,58.3652,-2379.08,0,0
52953.6,57.3689,-2317.95,0,0
54255.225,56.4237,-2260.91,0,0
55556.85,55.3777,-2205.13,0,0
56858.475,54.4736,-2151.83,0,0
58160.1,54.1714,-2101.19,0,0
59461.7,53.9151,-2053.21,0,0
60763.3,54.0935,-2007.14,0,0
62065,52.6831,-1963.07,0,0
63366.6,52.176,-1919.38,0,0
64668.2,52.62,-1877.05,0,0
65969.8,54.7245,-1839.34,0,0
67271.5,53.2271,-1802.9,0,0
68573.1,52.7424,-1766.98,0,0
69874.7,51.8418,-1732.71,0,0
71176.3,49.8639,-1698.28,0,0
72478,48.0861,-1664.47,0,0
73779.6,47.731,-1631,0,0
75081.2,48.0771,-1598.63,0,0
76382.825,48.7618,-1567.63,0,0
77684.45,49.9195,-1538.17,0,0
78986.075,51.4664,-1510.49,0,0
80287.7,50.632,-1484.09,0,0
81589.325,50.0452,-1456.2,0,0
82890.95,50.6462,-1429.27,0,0
84192.575,51.9976,-1403.06,0,0
85494.2,54.2072,-1378.08,0,0
86795.825,55.1939,-1354.99,0,0
88097.45,55.6152,-1331.51,0,0
89399.075,57.4298,-1306.92,0,0
90700.7,60.6414,-1283.57,0,0
92002.3,66.6432,-1262.17,0,0
93303.9,74.3649,-1244.81,0,0
94605.6,73.373,-1237.85,0,0
95907.2,66.9569,-1219.11,0,0
97208.8,65.0472,-1198.74,0,0
98510.4,64.3007,-1178.36,0,0
99812.1,63.3126,-1159.04,0,0
101114,62.8596,-1138.79,0,0
102415,63.2872,-1116.99,0,0
103717,67.8749,-1095.93,0,0
105019,74.5683,-1078.68,0,0
106320.175,80.2024,-1062.25,0,0
107621.8,86.5442,-1048.95,0,0
108923.425,90.8623,-1037.65,0,0
110225.05,93.7987,-1028.76,0,0
111526.675,94.1098,-1016.09,0,0
112828.3,97.5834,-1006.49,0,0
114129.925,96.8991,-999.328,0,0
115431.55,93.8476,-990.635,0,0
116733.175,89.1219,-979.438,0,0
118034.8,84.0368,-965.734,0,0
119336.425,81.7754,-950.191,0,0
120638.05,81.8812,-935.755,0,0
121939.675,80.0477,-923.019,0,0
123241,78.6813,-908.058,0,0
124543,78.6168,-893.126,0,0
125845,79.1187,-878.389,0,0
127146,80.043,-863.842,0,0
128448,82.033,-848.92,0,0
129749,84.6422,-834.747,0,0
131051,89.1843,-821.401,0,0
132353,93.535,-810.274,0,0
133654,96.7487,-799.434,0,0
134956,100.269,-788.554,0,0
136258,103.489,-778.17,0,0
137559,108.757,-768.585,0,0
138860.775,111.555,-762.882,0,0
140162.4,110.982,-755.46,0,0
141464.025,110.089,-745.54,0,0
142765.65,110.212,-734.478,0,0
144067.275,111.895,-722.806,0,0
145368.9,114.196,-711.695,0,0
146670.525,117.53,-701.645,0,0
147972.15,119.773,-693.089,0,0
149273.775,121.202,-682.88,0,0
150575.4,122.862,-674.602,0,0
151877.025,121.381,-663.945,0,0
153178.65,120.802,-649.012,0,0
154480,124.172,-632.717,0,0
155782,130.631,-615.758,0,0
157084,142.324,-600.404,0,0
158385,154.526,-590.925,0,0
159687,162.968,-579.402,0,0
160988,180.966,-567.273,0,0
162290,199.757,-566.12,0,0
163592,210.822,-567.129,0,0
164893,224.593,-566.222,0,0
166195,239.166,-571.882,0,0
167497,247.967,-582.354,0,0
168798,249.122,-595.686,0,0
170100,241.419,-604.8,0,0
171401.375,232.657,-603.702,0,0
172703.0,229.43,-599.264,0,0
174004.625,226.704,-596.698,0,0
175306.25,225.116,-593.705,0,0
176607.875,222.906,-592.399,0,0
177909.5,219.957,-588.83,0,0
179211.125,215.321,-587.473,0,0
180512.75,207.416,-583.566,0,0
181814.375,199.91,-575.258,0,0
183116.0,193.282,-563.876,0,0
184417.625,188.625,-550.89,0,0
185719.25,186.467,-535.917,0,0
187021,186.336,-520.625,0,0
188322,189.739,-504.777,0,0
189624,193.259,-491.208,0,0
190926,196.336,-476.092,0,0
192227,201.426,-458.775,0,0
193529,210.22,-441.03,0,0
194831,221.392,-424.606,0,0
196132,234.574,-407.867,0,0
197434,250.429,-392.768,0,0
198735,267.029,-378.547,0,0
200037,285.23,-362.308,0,0
201339,308.905,-345.797,0,0
202640.35,340.094,-328.244,0,0
203941.975,382.633,-317.394,0,0
205243.6,433.485,-321.878,0,0
206545.225,480.072,-345.189,0,0
207846.85,512.752,-380.206,0,0
209148.475,533.573,-419.942,0,0
210450.1,534.993,-462.318,0,0
211751.725,521.348,-483.682,0,0
213053.35,518.28,-485.729,0,0
214354.975,532.725,-493.535,0,0
215656.6,542.791,-509.553,0,0
216958.225,552.242,-526.392,0,0
218259.85,560.705,-542.273,0,0
219561,573.777,-557.081,0,0
220863,592.2,-580.209,0,0
222165,609.233,-614.355,0,0
223466,616.379,-659.61,0,0
224768,609.627,-707.335,0,0
226070,592.062,-752.81,0,0
227371,562.894,-794.107,0,0
228673,524.672,-827.295,0,0
229974,479.793,-847.424,0,0
231276,436.848,-853.838,0,0
232578,400.019,-851.319,0,0
233879,372.271,-844.476,0,0
235180.95,350.051,-841.057,0,0
236482.575,325.921,-838.117,0,0
237784.2,302.478,-833.393,0,0
239085.825,279.075,-825.095,0,0
240387.45,259.302,-814.357,0,0
241689.075,242.083,-803.221,0,0
242990.7,226.915,-791.05,0,0
244292.325,214.995,-779.459,0,0
245593.95,203.083,-769.76,0,0
246895.575,190.753,-758.766,0,0
248197.2,180.168,-746.348,0,0
249498.825,171.252,-733.752,0,0
250800,164.116,-721.151,0,0
252102,157.952,-709.409,0,0
253404,151.991,-697.323,0,0
254705,148.007,-684.402,0,0
256007,145.721,-672.726,0,0
257309,143.69,-661.313,0,0
258610,142.711,-649.56,0,0
259912,144.193,-637.725,0,0
261213,147.968,-628.052,0,0
262515,152.39,-620.563,0,0
263817,157.276,-614.595,0,0
265118,163.247,-610.397,0,0
266420,169.954,-609.948,0,0
267721.55,174.521,-615.122,0,0
269023.175,171.628,-622.929,0,0
270324.8,161.958,-626.567,0,0
271626.425,150.759,-623.344,0,0
272928.05,142.896,-615.074,0,0
274229.675,139.12,-606.206,0,0
275531.3,137.686,-597.91,0,0
276832.925,138.162,-590.626,0,0
278134.55,139.773,-585.498,0,0
279436.175,140.313,-582.324,0,0
280737.8,139.869,-578.614,0,0
282039.425,140.236,-575.715,0,0
283341,138.486,-573.104,0,0
284643,137.401,-569.676,0,0
285944,135.702,-566.905,0,0
287246,132.132,-562.467,0,0
288548,130.249,-555.058,0,0
289849,132.502,-547.671,0,0
291151,135.709,-544.641,0,0
292452,136.245,-542.492,0,0
293754,135.346,-538.955,0,0
295056,135.135,-533.664,0,0
296357,136.889,-527.529,0,0
297659,140.359,-522.062,0,0
298960.525,145.338,-517.917,0,0
300262.15,151.008,-515.371,0,0
301563.775,156.973,-514.323,0,0
302865.4,163.21,-515.467,0,0
304167.025,167.773,-518.207,0,0
305468.65,171.74,-521.527,0,0
306770.275,175.685,-525.989,0,0
308071.9,177.482,-533.238,0,0
309373.525,176.333,-539.867,0,0
310675.15,174.174,-545.93,0,0
311976.775,170.05,-552.201,0,0
313278.4,163.891,-556.531,0,0
314580,158.017,-559.222,0,0
315882,152.087,-562.272,0,0
317183,144.436,-564.398,0,0
318485,136.119,-564.721,0,0
319787,127.702,-563.276,0,0
321088,119.705,-560.259,0,0
322390,112.43,-555.498,0,0
323691,107.412,-549.256,0,0
324993,104.622,-543.458,0,0
326295,102.991,-538.752,0,0
327596,101.988,-535.432,0,0
328898,100.523,-533.178,0,0
330200,98.4375,-531.58,0,0
331501.125,95.5522,-529.934,0,0
332802.75,92.3048,-528.121,0,0
334104.375,88.5042,-525.963,0,0
335406.0,84.3965,-522.887,0,0
336707.625,80.7364,-519.23,0,0
338009.25,77.4823,-515.19,0,0
339310.875,74.7112,-511.051,0,0
340612.5,72.3582,-506.927,0,0
341914.125,70.1777,-503.031,0,0
343215.75,67.8643,-499.126,0,0
344517.375,65.7671,-495.107,0,0
345819.0,63.6282,-491.007,0,0
347121,61.6016,-486.519,0,0
348422,60.1183,-481.67,0,0
349724,59.1525,-477.227,0,0
351025,58.2705,-472.848,0,0
352327,57.6755,-468.505,0,0
353629,57.225,-464.458,0,0
354930,56.8584,-460.439,0,0
356232,56.5435,-456.53,0,0
357534,56.2993,-452.705,0,0
358835,56.0857,-448.778,0,0
360137,56.1429,-444.846,0,0
361438,56.2844,-441.196,0,0
362740.1,56.478,-437.512,0,0
364041.725,56.7132,-433.768,0,0
365343.35,57.3342,-429.995,0,0
366644.975,57.9215,-426.683,0,0
367946.6,58.0978,-422.974,0,0
369248.225,58.9872,-418.598,0,0
370549.85,60.7819,-414.325,0,0
371851.475,63.3663,-410.417,0,0
373153.1,66.5986,-407.67,0,0
374454.725,69.717,-405.837,0,0
375756.35,72.5203,-404.733,0,0
377057.975,74.9429,-404.156,0,0
378359.6,76.9482,-403.937,0,0
379661,78.3257,-403.832,0,0
380963,80.0265,-403.37,0,0
382264,82.1808,-404.233,0,0
383566,83.1791,-406.191,0,0
384868,82.5347,-408.421,0,0
386169,80.6077,-409.943,0,0
387471,77.9248,-410.411,0,0
388773,75.1372,-409.671,0,0
390074,72.926,-408.105,0,0
391376,71.4084,-406.668,0,0
392677,69.4967,-405.671,0,0
393979,67.033,-404.186,0,0
395280.7,64.4682,-401.925,0,0
396582.325,62.152,-399.034,0,0
397883.95,60.3527,-395.516,0,0
399185.575,59.3338,-391.804,0,0
400006.6,59.0043,-389.634,0,0