File: Accelerated corrosion test data/2025-10-21_06-00-04/sample_8.csv
Frequency (Hz),Impedance (ohms),Phase (Radians),Temperature (C),Humidity (%)
10000.0,303.402,-10994.6,0,0
11301.625,269.1,-9743.1,0,0
12603.25,248.126,-8749.43,0,0
13904.875,220.521,-7946.76,0,0
15206.5,200.471,-7271.35,0,0
16508.125,185.056,-6703.5,0,0
17809.75,172.495,-6216.36,0,0
19111.375,164.705,-5792.11,0,0
20413.0,158.345,-5430.26,0,0
21714.625,146.846,-5109.64,0,0
23016.25,141.608,-4825.79,0,0
24317.875,130.014,-4568.75,0,0
25619.5,123.477,-4334.94,0,0
26921.1,118.306,-4124.1,0,0
28222.7,115.62,-3933.83,0,0
29524.4,111.963,-3760.87,0,0
30826,107.793,-3602.84,0,0
32127.6,103.935,-3454.34,0,0
33429.2,104.246,-3317.18,0,0
34730.9,105.437,-3192.4,0,0
36032.5,108.697,-3081.91,0,0
37334.1,104.744,-2982.49,0,0
38635.7,94.3649,-2885.58,0,0
39937.4,86.8485,-2788.13,0,0
41239,84.1175,-2697.68,0,0
42540.6,81.2704,-2612.41,0,0
43842.225,80.2312,-2535.01,0,0
45143.85,76.2452,-2460.21,0,0
46445.475,73.3924,-2388.96,0,0
47747.1,71.5386,-2321.43,0,0
49048.725,69.5635,-2257.64,0,0
50350.35,67.5714,-2196.58,0,0
51651.975,66.691,-2138.43,0,0
52953.6,66.2613,-2083.53,0,0
54255.225,65.1937,-2033.44,0,0
55556.85,62.2593,-1984.04,0,0
56858.475,60.2252,-1935.18,0,0
58160.1,59.4222,-1888.62,0,0
59461.7,58.453,-1844.75,0,0
60763.3,57.3658,-1801.67,0,0
62065,56.8581,-1760.84,0,0
63366.6,57.5348,-1721.53,0,0
64668.2,57.1361,-1685.25,0,0
65969.8,56.4625,-1649.86,0,0
67271.5,54.868,-1615.31,0,0
68573.1,53.7819,-1581.31,0,0
69874.7,53.7821,-1548.17,0,0
71176.3,53.7084,-1516.95,0,0
72478,53.3267,-1487.29,0,0
73779.6,52.5501,-1457.89,0,0
75081.2,51.8314,-1429.13,0,0
76382.825,51.5115,-1401.1,0,0
77684.45,51.061,-1374.39,0,0
78986.075,50.428,-1347.99,0,0
80287.7,49.8258,-1321.75,0,0
81589.325,50.0609,-1295.91,0,0
82890.95,50.8938,-1270.97,0,0
84192.575,52.3806,-1247.71,0,0
85494.2,51.3446,-1225.46,0,0
86795.825,51.5635,-1201.76,0,0
88097.45,52.3094,-1179.11,0,0
89399.075,52.995,-1156.36,0,0
90700.7,55.6192,-1133.38,0,0
92002.3,59.1409,-1114.16,0,0
93303.9,61.0527,-1093.91,0,0
94605.6,63.4089,-1075.59,0,0
95907.2,65.0426,-1056.3,0,0
97208.8,68.4821,-1036.86,0,0
98510.4,73.5575,-1018.65,0,0
99812.1,78.3374,-1003.52,0,0
101114,83.6979,-989.718,0,0
102415,86.5359,-978.897,0,0
103717,86.9984,-967.212,0,0
105019,85.6158,-955.38,0,0
106320.175,85.0657,-940.785,0,0
107621.8,84.9098,-927.423,0,0
108923.425,84.9906,-912.237,0,0
110225.05,86.7667,-899.228,0,0
111526.675,87.4098,-886.567,0,0
112828.3,88.3041,-874.675,0,0
114129.925,87.8999,-862.899,0,0
115431.55,87.9564,-851.003,0,0
116733.175,86.3803,-838.916,0,0
118034.8,86.0219,-826.084,0,0
119336.425,85.8279,-813.939,0,0
120638.05,84.7925,-801.506,0,0
121939.675,84.5705,-789.25,0,0
123241,83.6333,-776.983,0,0
124543,82.6976,-764.602,0,0
125845,81.2587,-751.625,0,0
127146,80.2834,-737.861,0,0
128448,80.2031,-723.649,0,0
129749,80.207,-710.115,0,0
131051,81.3109,-695.522,0,0
132353,82.3924,-682.491,0,0
133654,83.018,-669.17,0,0
134956,84.3228,-654.924,0,0
136258,86.5863,-641.969,0,0
137559,86.4884,-629.342,0,0
138860.775,86.4713,-613.613,0,0
140162.4,88.6656,-597.911,0,0
141464.025,90.9937,-582.025,0,0
142765.65,93.778,-564.958,0,0
144067.275,98.5144,-547.368,0,0
145368.9,105.114,-528.926,0,0
146670.525,114.124,-511.151,0,0
147972.15,123.376,-495.744,0,0
149273.775,134.428,-476.345,0,0
150575.4,153.572,-457.086,0,0
151877.025,179.993,-448.75,0,0
153178.65,199.158,-451.905,0,0
154480,209.336,-454.007,0,0
155782,223.453,-455.939,0,0
157084,221.506,-465.955,0,0
158385,220.963,-456.474,0,0
159687,227.963,-455.447,0,0
160988,220.304,-451.958,0,0
162290,225.961,-434.765,0,0
163592,236.979,-431.978,0,0
164893,241.825,-429.703,0,0
166195,241.342,-432.784,0,0
167497,230.426,-428.222,0,0
168798,220.693,-413.772,0,0
170100,215.587,-391.385,0,0
171401.375,216.132,-366.419,0,0
172703.0,224.01,-338.753,0,0
174004.625,236.787,-314.691,0,0
175306.25,247.656,-292.517,0,0
176607.875,263.712,-263.625,0,0
177909.5,282.559,-234.331,0,0
179211.125,314.753,-201.508,0,0
180512.75,356.83,-176.128,0,0
181814.375,403.95,-155.978,0,0
183116.0,461.996,-154.929,0,0
184417.625,501.907,-160.707,0,0
185719.25,553.317,-165.14,0,0
187021,599.745,-182.299,0,0
188322,639.683,-202.455,0,0
189624,674.123,-224.413,0,0
190926,712.04,-238.847,0,0
192227,753.846,-266.299,0,0
193529,799.386,-279.679,0,0
194831,875.366,-317.408,0,0
196132,946.769,-395.278,0,0
197434,989.846,-512.004,0,0
198735,978.818,-644.441,0,0
200037,913.48,-755.742,0,0
201339,833.876,-816.648,0,0
202640.35,744.591,-860.501,0,0
203941.975,665.699,-854.859,0,0
205243.6,606.245,-842.933,0,0
206545.225,563.522,-809.59,0,0
207846.85,552.114,-781.342,0,0
209148.475,547.851,-768.724,0,0
210450.1,547.027,-757.007,0,0
211751.725,556.538,-755.43,0,0
213053.35,564.646,-769.34,0,0
214354.975,562.243,-790.251,0,0
215656.6,554.684,-811.511,0,0
216958.225,539.233,-834.435,0,0
218259.85,517.829,-854.932,0,0
219561,488.848,-871.458,0,0
220863,455.07,-878.334,0,0
222165,426.015,-873.804,0,0
223466,404.799,-865.121,0,0
224768,391.898,-858.858,0,0
226070,382.052,-859.724,0,0
227371,366.482,-865.48,0,0
228673,346.895,-866.113,0,0
229974,329.58,-869.233,0,0
231276,305.419,-871.793,0,0
232578,278.342,-868.727,0,0
233879,249.887,-859.471,0,0
235180.95,224.432,-841.839,0,0
236482.575,206.862,-820.058,0,0
237784.2,195.482,-798.848,0,0
239085.825,189.213,-777.788,0,0
240387.45,188.998,-762,0,0
241689.075,187.994,-752.993,0,0
242990.7,181.935,-744.326,0,0
244292.325,175.866,-733.173,0,0
245593.95,171.653,-721.071,0,0
246895.575,170.52,-709.513,0,0
248197.2,168.608,-700.114,0,0
249498.825,167.162,-690.348,0,0
250800,166.841,-680.34,0,0
252102,169.042,-671.673,0,0
253404,171.929,-666.857,0,0
254705,170.834,-664.944,0,0
256007,165.957,-660.662,0,0
257309,160.694,-652.312,0,0
258610,158.919,-640.603,0,0
259912,162.117,-629.784,0,0
261213,166.056,-622.495,0,0
262515,169.319,-616.7,0,0
263817,171.968,-609.491,0,0
265118,176.336,-600.874,0,0
266420,185.683,-590.662,0,0
267721.55,202.997,-585.076,0,0
269023.175,222.55,-589.874,0,0
270324.8,240.123,-603.173,0,0
271626.425,250.665,-626.974,0,0
272928.05,249.678,-655.75,0,0
274229.675,231.312,-683.344,0,0
275531.3,203.337,-695.889,0,0
276832.925,176.947,-696.273,0,0
278134.55,155.043,-689.381,0,0
279436.175,137.978,-677.402,0,0
280737.8,128.393,-663.144,0,0
282039.425,124.143,-651.694,0,0
283341,121.519,-643.401,0,0
284643,118.967,-635.481,0,0
285944,118.955,-628.08,0,0
287246,122.469,-624.167,0,0
288548,123.947,-628.17,0,0
289849,116.654,-633.494,0,0
291151,105.556,-632.722,0,0
292452,95.1997,-628.787,0,0
293754,85.7118,-622.145,0,0
295056,77.8859,-613.472,0,0
296357,72.7481,-604.196,0,0
297659,68.7607,-595.483,0,0
298960.525,65.5859,-586.601,0,0
300262.15,63.6689,-577.55,0,0
301563.775,63.2886,-568.665,0,0
302865.4,64.4169,-560.896,0,0
304167.025,66.2539,-554.456,0,0
305468.65,68.3582,-549.405,0,0
306770.275,70.2267,-545.75,0,0
308071.9,71.7011,-542.896,0,0
309373.525,72.0732,-541.457,0,0
310675.15,70.9828,-539.167,0,0
311976.775,70.1704,-536.583,0,0
313278.4,68.9231,-534.306,0,0
314580,67.1494,-531.668,0,0
315882,65.1919,-528.469,0,0
317183,63.7277,-524.755,0,0
318485,62.5162,-521.192,0,0
319787,61.8173,-517.299,0,0
321088,61.5362,-514.467,0,0
322390,60.8472,-512.058,0,0
323691,59.5448,-510.134,0,0
324993,57.3016,-507.64,0,0
326295,55.0626,-504.463,0,0
327596,53.1341,-500.878,0,0
328898,51.4125,-497.317,0,0
330200,49.5937,-493.489,0,0
331501.125,48.0491,-489.383,0,0
332802.75,46.7828,-484.948,0,0
334104.375,46.1135,-480.287,0,0
335406.0,46.2988,-476.1,0,0
336707.625,46.5956,-472.754,0,0
338009.25,46.4976,-469.987,0,0
339310.875,45.7898,-467.249,0,0
340612.5,44.7882,-464.261,0,0
341914.125,43.6123,-460.818,0,0
343215.75,42.5722,-457.08,0,0
344517.375,41.8107,-452.93,0,0
345819.0,41.5078,-448.734,0,0
347121,41.6475,-444.598,0,0
348422,42.0752,-440.672,0,0
349724,42.688,-436.762,0,0
351025,43.7352,-433.099,0,0
352327,44.9288,-429.957,0,0
353629,46.075,-427.241,0,0
354930,47.1375,-424.782,0,0
356232,48.0768,-422.543,0,0
357534,48.7335,-420.432,0,0
358835,49.282,-418.336,0,0
360137,49.8435,-416.261,0,0
361438,50.4217,-414.224,0,0
362740.1,50.852,-412.393,0,0
364041.725,51.1154,-410.603,0,0
365343.35,51.3446,-408.798,0,0
366644.975,51.4127,-406.951,0,0
367946.6,51.4641,-404.904,0,0
369248.225,51.6893,-402.623,0,0
370549.85,52.5661,-400.532,0,0
371851.475,53.5661,-399.318,0,0
373153.1,53.8806,-398.687,0,0
374454.725,53.4194,-398.08,0,0
375756.35,52.2316,-396.808,0,0
377057.975,51.5244,-394.821,0,0
378359.6,50.9738,-393.33,0,0
379661,49.7579,-391.261,0,0
380963,49.5847,-388.317,0,0
382264,50.3665,-386.762,0,0
383566,49.9279,-385.997,0,0
384868,48.5271,-384.852,0,0
386169,46.8918,-382.857,0,0
387471,45.3493,-380.166,0,0
388773,44.2983,-376.975,0,0
390074,43.9077,-373.741,0,0
391376,43.7524,-370.846,0,0
392677,43.6606,-368.081,0,0
393979,43.4812,-365.249,0,0
395280.7,43.4972,-362.263,0,0
396582.325,43.7807,-359.308,0,0
397883.95,44.1929,-356.636,0,0
399185.575,44.5808,-354.015,0,0
400006.6,44.8234,-352.414,0,0