File: Accelerated corrosion test data/2025-10-21_06-00-04/sample_3.csv
Frequency (Hz),Impedance (ohms),Phase (Radians),Temperature (C),Humidity (%)
10000.0,251.408,-11913.5,0,0
11301.625,224.118,-10552.3,0,0
12603.25,203.562,-9470.22,0,0
13904.875,185.831,-8587.78,0,0
15206.5,175.174,-7848.49,0,0
16508.125,161.507,-7249.06,0,0
17809.75,156.789,-6715.73,0,0
19111.375,146.022,-6259.75,0,0
20413.0,164.909,-5856.97,0,0
21714.625,139.554,-5530.61,0,0
23016.25,128.242,-5221.72,0,0
24317.875,120.181,-4940.11,0,0
25619.5,114.138,-4689.7,0,0
26921.1,109.343,-4456.93,0,0
28222.7,104.061,-4247.37,0,0
29524.4,109.362,-4069.32,0,0
30826,101.875,-3895.76,0,0
32127.6,102.148,-3728.57,0,0
33429.2,99.4802,-3604.52,0,0
34730.9,88.0866,-3464.79,0,0
36032.5,83.5814,-3335.6,0,0
37334.1,80.2502,-3216.19,0,0
38635.7,78.2591,-3104.94,0,0
39937.4,75.8494,-3001.49,0,0
41239,74.3948,-2903.42,0,0
42540.6,73.1854,-2812.79,0,0
43842.225,72.1415,-2726.5,0,0
45143.85,71.1602,-2646.15,0,0
46445.475,69.8019,-2569.56,0,0
47747.1,70.4229,-2496.36,0,0
49048.725,68.594,-2430.3,0,0
50350.35,66.639,-2364.36,0,0
51651.975,66.2353,-2301.03,0,0
52953.6,66.3647,-2240.84,0,0
54255.225,69.0071,-2185.18,0,0
55556.85,66.9684,-2136.88,0,0
56858.475,61.6628,-2083.81,0,0
58160.1,61.0917,-2031.38,0,0
59461.7,61.6667,-1981.57,0,0
60763.3,62.9115,-1934.55,0,0
62065,64.7051,-1889.19,0,0
63366.6,68.6313,-1844.81,0,0
64668.2,77.2945,-1802.72,0,0
65969.8,91.9882,-1776.49,0,0
67271.5,75.4797,-1751.22,0,0
68573.1,76.0984,-1712.9,0,0
69874.7,76.83,-1683.14,0,0
71176.3,71.6634,-1652.82,0,0
72478,70.5439,-1619.74,0,0
73779.6,69.2976,-1591.5,0,0
75081.2,65.6345,-1563.63,0,0
76382.825,61.7905,-1534.47,0,0
77684.45,58.8997,-1505.36,0,0
78986.075,56.4151,-1476.68,0,0
80287.7,54.7964,-1448.25,0,0
81589.325,53.6007,-1420.78,0,0
82890.95,52.9506,-1394.04,0,0
84192.575,52.5781,-1368.16,0,0
85494.2,52.4138,-1342.94,0,0
86795.825,52.4621,-1318.38,0,0
88097.45,52.8763,-1294.33,0,0
89399.075,54.1353,-1270.42,0,0
90700.7,56.066,-1248.57,0,0
92002.3,58.1345,-1227.63,0,0
93303.9,60.6298,-1208.12,0,0
94605.6,61.4552,-1193.12,0,0
95907.2,56.5155,-1174.91,0,0
97208.8,55.3589,-1153.38,0,0
98510.4,55.1149,-1133.23,0,0
99812.1,54.9275,-1113.89,0,0
101114,54.7515,-1094.02,0,0
102415,56.2419,-1073.44,0,0
103717,59.9651,-1055.66,0,0
105019,63.2509,-1040.93,0,0
106320.175,63.3093,-1027.01,0,0
107621.8,61.5669,-1011.64,0,0
108923.425,59.6548,-994.58,0,0
110225.05,59.457,-976.239,0,0
111526.675,61.3871,-958.034,0,0
112828.3,63.6415,-942.141,0,0
114129.925,64.7359,-926.327,0,0
115431.55,66.4046,-909.225,0,0
116733.175,69.7474,-892.213,0,0
118034.8,75.5437,-875.43,0,0
119336.425,82.4331,-862.742,0,0
120638.05,89.6086,-856.821,0,0
121939.675,85.735,-848.399,0,0
123241,86.2227,-834.215,0,0
124543,88.2756,-822.219,0,0
125845,90.4283,-811.419,0,0
127146,90.709,-801.639,0,0
128448,89.9123,-791.616,0,0
129749,88.7457,-779.302,0,0
131051,89.834,-767.364,0,0
132353,88.6211,-756.614,0,0
133654,87.4337,-744.931,0,0
134956,85.9916,-732.253,0,0
136258,84.4181,-719.105,0,0
137559,83.7248,-703.928,0,0
138860.775,85.1347,-690.361,0,0
140162.4,84.5147,-677.352,0,0
141464.025,83.445,-663.59,0,0
142765.65,82.2592,-647.508,0,0
144067.275,82.3004,-630.266,0,0
145368.9,83.8125,-612.231,0,0
146670.525,86.0535,-593.425,0,0
147972.15,90.1566,-573.631,0,0
149273.775,96.0553,-553.354,0,0
150575.4,105.883,-533.174,0,0
151877.025,118.109,-515.679,0,0
153178.65,129.852,-501.715,0,0
154480,139.954,-488.239,0,0
155782,149.665,-472.747,0,0
157084,160.89,-455.887,0,0
158385,176.205,-445.159,0,0
159687,181.318,-430.514,0,0
160988,193.906,-406.033,0,0
162290,215.631,-379.151,0,0
163592,247.423,-353.439,0,0
164893,295.758,-338.676,0,0
166195,348.906,-345.647,0,0
167497,391.803,-375.153,0,0
168798,413.387,-410.752,0,0
170100,416.202,-446.803,0,0
171401.375,409.239,-460.954,0,0
172703.0,410.895,-468.277,0,0
174004.625,416.847,-481.05,0,0
175306.25,423.703,-496.587,0,0
176607.875,425.547,-524.579,0,0
177909.5,396.322,-546.306,0,0
179211.125,369.876,-535.738,0,0
180512.75,366.334,-521.645,0,0
181814.375,372.119,-517.659,0,0
183116.0,369.787,-525.306,0,0
184417.625,356.787,-528.301,0,0
185719.25,338.766,-520.678,0,0
187021,329.306,-499.771,0,0
188322,329.496,-482.121,0,0
189624,331.496,-462.895,0,0
190926,341.053,-446.504,0,0
192227,349.214,-432.348,0,0
193529,360.815,-413.113,0,0
194831,381.199,-397.624,0,0
196132,409.858,-386.135,0,0
197434,436.79,-393.056,0,0
198735,450.007,-402.802,0,0
200037,456.997,-404.629,0,0
201339,465.975,-395.224,0,0
202640.35,490.808,-385.318,0,0
203941.975,519.697,-387.848,0,0
205243.6,545.746,-401.639,0,0
206545.225,557.827,-411.534,0,0
207846.85,581.352,-409.534,0,0
209148.475,617.298,-420.974,0,0
210450.1,648.646,-442.939,0,0
211751.725,676.882,-474.001,0,0
213053.35,700.79,-509.755,0,0
214354.975,714.252,-554.638,0,0
215656.6,720.572,-597.974,0,0
216958.225,718.916,-642.891,0,0
218259.85,708.552,-687.058,0,0
219561,691.844,-724.54,0,0
220863,675.426,-761.819,0,0
222165,647.468,-803.377,0,0
223466,602.816,-832.315,0,0
224768,561.298,-837.907,0,0
226070,536.577,-838.339,0,0
227371,517.581,-846.479,0,0
228673,491.456,-856.934,0,0
229974,465.878,-863.968,0,0
231276,436.743,-867.408,0,0
232578,410.241,-865.941,0,0
233879,386.041,-863.187,0,0
235180.95,363.724,-859.765,0,0
236482.575,339.174,-856.07,0,0
237784.2,314.677,-848.376,0,0
239085.825,291.476,-835.968,0,0
240387.45,271.981,-821.35,0,0
241689.075,254.784,-803.55,0,0
242990.7,245.351,-784.113,0,0
244292.325,239.281,-771.326,0,0
245593.95,231.088,-757.86,0,0
246895.575,225.578,-744.225,0,0
248197.2,220.89,-731.101,0,0
249498.825,220.91,-719.141,0,0
250800,219.522,-712.484,0,0
252102,214.604,-706.121,0,0
253404,207.854,-696.984,0,0
254705,201.986,-683.736,0,0
256007,200.612,-667.685,0,0
257309,205.618,-653.046,0,0
258610,213.5,-641.268,0,0
259912,225.656,-632.752,0,0
261213,242.946,-631.969,0,0
262515,253.949,-645.698,0,0
263817,252.226,-660.13,0,0
265118,243.512,-670.556,0,0
266420,229.471,-676.584,0,0
267721.55,213.908,-673.47,0,0
269023.175,202.527,-665.375,0,0
270324.8,195.542,-654.989,0,0
271626.425,192.866,-645.152,0,0
272928.05,190.786,-637.713,0,0
274229.675,189.558,-628.531,0,0
275531.3,191.768,-618.906,0,0
276832.925,198.261,-611.701,0,0
278134.55,206.379,-609.878,0,0
279436.175,213.155,-613.446,0,0
280737.8,215.08,-620.756,0,0
282039.425,211.602,-627.498,0,0
283341,204.66,-631.314,0,0
284643,197.08,-631.818,0,0
285944,189.628,-629.722,0,0
287246,184.027,-625.487,0,0
288548,180.297,-620.96,0,0
289849,179.216,-617.164,0,0
291151,177.142,-616.325,0,0
292452,172.39,-614.981,0,0
293754,167.965,-609.989,0,0
295056,167.294,-604.431,0,0
296357,168.778,-602.153,0,0
297659,168.929,-602.69,0,0
298960.525,166.933,-604.021,0,0
300262.15,163.026,-605.335,0,0
301563.775,157.463,-605.504,0,0
302865.4,151.095,-603.758,0,0
304167.025,145.448,-600.502,0,0
305468.65,140.47,-596.175,0,0
306770.275,136.626,-591.415,0,0
308071.9,133.928,-586.552,0,0
309373.525,132.329,-582.368,0,0
310675.15,130.973,-579.738,0,0
311976.775,127.913,-577.999,0,0
313278.4,123.314,-574.932,0,0
314580,119.119,-569.593,0,0
315882,117.252,-563.059,0,0
317183,117.122,-557.726,0,0
318485,117.442,-553.658,0,0
319787,117.763,-550.581,0,0
321088,117.725,-547.333,0,0
322390,118.979,-544.551,0,0
323691,120.631,-544.274,0,0
324993,120.137,-545.817,0,0
326295,117.195,-547.077,0,0
327596,112.82,-547.118,0,0
328898,107.989,-545.569,0,0
330200,103.796,-543.099,0,0
331501.125,99.3702,-540.487,0,0
332802.75,94.842,-536.977,0,0
334104.375,90.4777,-532.776,0,0
335406.0,86.4595,-527.71,0,0
336707.625,83.3358,-521.735,0,0
338009.25,81.1718,-515.684,0,0
339310.875,79.3578,-509.626,0,0
340612.5,78.6389,-502.633,0,0
341914.125,80.0701,-496.067,0,0
343215.75,82.9143,-491.523,0,0
344517.375,85.1313,-489.095,0,0
345819.0,86.0035,-487.68,0,0
347121,85.397,-486.189,0,0
348422,83.9217,-483.532,0,0
349724,83.0733,-479.391,0,0
351025,84.207,-475.492,0,0
352327,85.7567,-473.427,0,0
353629,86.2865,-472.546,0,0
354930,85.326,-471.492,0,0
356232,83.7609,-469.691,0,0
357534,82.1313,-466.911,0,0
358835,81.3752,-463.236,0,0
360137,81.4303,-460.239,0,0
361438,81.1521,-457.893,0,0
362740.1,80.4453,-454.811,0,0
364041.725,80.9428,-451.275,0,0
365343.35,82.4747,-448.829,0,0
366644.975,83.598,-448.174,0,0
367946.6,82.5123,-448.209,0,0
369248.225,79.7883,-446.039,0,0
370549.85,79.1334,-441.705,0,0
371851.475,80.6346,-439.158,0,0
373153.1,80.8613,-438.671,0,0
374454.725,79.1168,-437.366,0,0
375756.35,77.4695,-434.66,0,0
377057.975,76.7361,-431.183,0,0
378359.6,76.8884,-427.675,0,0
379661,78.0451,-425.101,0,0
380963,78.7356,-423.731,0,0
382264,78.6295,-422.339,0,0
383566,78.3239,-421.197,0,0
384868,77.1216,-419.809,0,0
386169,75.5428,-417.666,0,0
387471,74.024,-414.722,0,0
388773,72.9332,-411.046,0,0
390074,72.7819,-406.666,0,0
391376,74.0824,-402.382,0,0
392677,76.3619,-399.23,0,0
393979,78.6132,-397.215,0,0
395280.7,80.7661,-395.788,0,0
396582.325,82.6807,-395.253,0,0
397883.95,84.0086,-395.333,0,0
399185.575,84.5202,-395.961,0,0
400006.6,84.2528,-396.463,0,0