File: Accelerated corrosion test data/2025-10-21_06-00-04/sample_4.csv
Frequency (Hz),Impedance (ohms),Phase (Radians),Temperature (C),Humidity (%)
10000.0,260.854,-11944.5,0,0
11301.625,232.335,-10581,0,0
12603.25,212.026,-9492.48,0,0
13904.875,191.76,-8605.34,0,0
15206.5,178.824,-7875.48,0,0
16508.125,194.341,-7264.91,0,0
17809.75,154.539,-6749.54,0,0
19111.375,144.059,-6289.14,0,0
20413.0,139.447,-5886.05,0,0
21714.625,146.627,-5540.15,0,0
23016.25,123.968,-5237.7,0,0
24317.875,114.949,-4951.85,0,0
25619.5,111.377,-4696.75,0,0
26921.1,105.212,-4465.49,0,0
28222.7,118.746,-4263.12,0,0
29524.4,113.294,-4083.04,0,0
30826,98.3513,-3908.92,0,0
32127.6,99.5724,-3747.22,0,0
33429.2,89.2796,-3605.7,0,0
34730.9,84.0843,-3466.57,0,0
36032.5,81.0156,-3338.42,0,0
37334.1,78.7097,-3218.55,0,0
38635.7,76.211,-3105.94,0,0
39937.4,76.59,-2999.27,0,0
41239,79.7423,-2904.71,0,0
42540.6,78.0681,-2816.21,0,0
43842.225,73.0504,-2732.22,0,0
45143.85,70.8293,-2650.76,0,0
46445.475,69.629,-2572.98,0,0
47747.1,69.4999,-2503.02,0,0
49048.725,65.3445,-2433.54,0,0
50350.35,63.6432,-2365.75,0,0
51651.975,63.0494,-2300.73,0,0
52953.6,64.7189,-2237.43,0,0
54255.225,72.8503,-2180.38,0,0
55556.85,71.1282,-2137.39,0,0
56858.475,64.8877,-2082.81,0,0
58160.1,65.8216,-2030.3,0,0
59461.7,69.8282,-1979.89,0,0
60763.3,79.5178,-1941.04,0,0
62065,68.9531,-1908.13,0,0
63366.6,63.3243,-1862.21,0,0
64668.2,63.7418,-1818.3,0,0
65969.8,65.693,-1777.29,0,0
67271.5,69.4454,-1740.88,0,0
68573.1,73.6123,-1711.42,0,0
69874.7,66.0954,-1682.26,0,0
71176.3,64.3975,-1648,0,0
72478,58.591,-1615.75,0,0
73779.6,57.0371,-1579.34,0,0
75081.2,59.1868,-1545.94,0,0
76382.825,61.6022,-1516.92,0,0
77684.45,64.9106,-1488.95,0,0
78986.075,63.8418,-1466.6,0,0
80287.7,60.8324,-1439.6,0,0
81589.325,60.4787,-1413.64,0,0
82890.95,59.1906,-1388.77,0,0
84192.575,57.7549,-1363.9,0,0
85494.2,56.8617,-1339.63,0,0
86795.825,55.9416,-1315.86,0,0
88097.45,54.3622,-1292.85,0,0
89399.075,53.1463,-1268.5,0,0
90700.7,53.1055,-1245.27,0,0
92002.3,53.4998,-1222.04,0,0
93303.9,54.8342,-1201,0,0
94605.6,53.4617,-1181.13,0,0
95907.2,52.6068,-1158.65,0,0
97208.8,53.1417,-1136.88,0,0
98510.4,54.3279,-1115.29,0,0
99812.1,56.6675,-1094.42,0,0
101114,60.3912,-1075.8,0,0
102415,59.5668,-1060.58,0,0
103717,57.2328,-1037.91,0,0
105019,60.4896,-1014.39,0,0
106320.175,66.7278,-993.453,0,0
107621.8,73.3029,-975.186,0,0
108923.425,81.4278,-957.794,0,0
110225.05,89.9908,-944.409,0,0
111526.675,96.4766,-933.21,0,0
112828.3,102.174,-922.743,0,0
114129.925,106.28,-913.836,0,0
115431.55,108.917,-905.693,0,0
116733.175,109.218,-897.312,0,0
118034.8,107.95,-887.116,0,0
119336.425,109.217,-874.014,0,0
120638.05,114.482,-869.61,0,0
121939.675,106.958,-863.679,0,0
123241,101.993,-851.429,0,0
124543,99.0162,-838.337,0,0
125845,97.9596,-826.378,0,0
127146,95.1299,-816.433,0,0
128448,89.886,-806.447,0,0
129749,81.8036,-792.267,0,0
131051,76.0761,-774.493,0,0
132353,72.8858,-755.578,0,0
133654,71.5902,-736.555,0,0
134956,71.7479,-717.607,0,0
136258,73.3103,-699,0,0
137559,75.3356,-681.247,0,0
138860.775,77.2116,-662.72,0,0
140162.4,80.5877,-643.604,0,0
141464.025,85.6898,-624.456,0,0
142765.65,91.5724,-606.302,0,0
144067.275,97.9637,-588.163,0,0
145368.9,105.171,-569.763,0,0
146670.525,113.958,-551.088,0,0
147972.15,124.153,-532.743,0,0
149273.775,135.646,-514.567,0,0
150575.4,149.829,-495.554,0,0
151877.025,167.858,-477.955,0,0
153178.65,190.294,-464.519,0,0
154480,212.626,-458.553,0,0
155782,230.595,-454.539,0,0
157084,246.591,-451.643,0,0
158385,261.771,-447.491,0,0
159687,281.365,-446.65,0,0
160988,296.58,-450.529,0,0
162290,306.635,-456.041,0,0
163592,310.092,-457.868,0,0
164893,316.072,-449.777,0,0
166195,331.486,-438.128,0,0
167497,359.778,-435.452,0,0
168798,388.525,-446.634,0,0
170100,412.875,-474.611,0,0
171401.375,414.837,-514.283,0,0
172703.0,393.694,-546.854,0,0
174004.625,360.115,-558.068,0,0
175306.25,329.103,-551.983,0,0
176607.875,306.944,-531.225,0,0
177909.5,297.086,-507.322,0,0
179211.125,295.105,-484.21,0,0
180512.75,298.777,-464.896,0,0
181814.375,302.858,-448.524,0,0
183116.0,305.506,-432.52,0,0
184417.625,308.828,-412.632,0,0
185719.25,315.588,-391.285,0,0
187021,324.001,-367.569,0,0
188322,337.123,-340.504,0,0
189624,356.104,-311.275,0,0
190926,383.19,-280.97,0,0
192227,420.091,-251.529,0,0
193529,466.797,-227.489,0,0
194831,521.042,-210.502,0,0
196132,583.231,-199.435,0,0
197434,656.516,-198.282,0,0
198735,742.089,-212.595,0,0
200037,836.241,-260.31,0,0
201339,914.597,-342.942,0,0
202640.35,961.261,-446.053,0,0
203941.975,978.508,-556.891,0,0
205243.6,965.492,-661.215,0,0
206545.225,930.276,-756.657,0,0
207846.85,870.625,-838.368,0,0
209148.475,794.517,-892.39,0,0
210450.1,721.743,-916.084,0,0
211751.725,660.85,-922.611,0,0
213053.35,608.951,-920.925,0,0
214354.975,572.152,-908.57,0,0
215656.6,548.656,-905.69,0,0
216958.225,522.318,-906.211,0,0
218259.85,497.217,-906.547,0,0
219561,472.308,-906.784,0,0
220863,445.855,-904.456,0,0
222165,422.765,-899.376,0,0
223466,403.556,-893.255,0,0
224768,385.822,-891.62,0,0
226070,364.503,-891.035,0,0
227371,340.092,-888.484,0,0
228673,313.863,-880.348,0,0
229974,290.762,-867.01,0,0
231276,270.651,-851.365,0,0
232578,255.307,-834.743,0,0
233879,241.899,-817.602,0,0
235180.95,232.505,-801.188,0,0
236482.575,223.842,-785.975,0,0
237784.2,217.359,-770.081,0,0
239085.825,213.628,-755.472,0,0
240387.45,211.338,-742.758,0,0
241689.075,210.184,-732.287,0,0
242990.7,208.459,-724.136,0,0
244292.325,204.916,-717.403,0,0
245593.95,199.252,-709.407,0,0
246895.575,193.573,-699.426,0,0
248197.2,189.663,-687.973,0,0
249498.825,188.072,-676.466,0,0
250800,187.437,-667.38,0,0
252102,184.618,-658.718,0,0
253404,181.906,-647.93,0,0
254705,178.934,-636.794,0,0
256007,177.021,-621.307,0,0
257309,179.267,-603.491,0,0
258610,187.436,-585.367,0,0
259912,201.443,-570.369,0,0
261213,219.025,-559.313,0,0
262515,240.629,-553.434,0,0
263817,262.699,-558.239,0,0
265118,278.786,-566.363,0,0
266420,296.227,-577.566,0,0
267721.55,310.026,-599.142,0,0
269023.175,310.311,-625.391,0,0
270324.8,299.831,-644.824,0,0
271626.425,289.152,-657.683,0,0
272928.05,275.917,-667.777,0,0
274229.675,263.999,-675.963,0,0
275531.3,247.512,-683.856,0,0
276832.925,225.919,-685.474,0,0
278134.55,206.094,-676.046,0,0
279436.175,196.679,-661.71,0,0
280737.8,192.893,-653.109,0,0
282039.425,189.646,-644.225,0,0
283341,190.347,-638.577,0,0
284643,189.082,-637.915,0,0
285944,182.452,-637.413,0,0
287246,174.368,-631.519,0,0
288548,168.146,-621.308,0,0
289849,168.367,-608.703,0,0
291151,175.224,-598.323,0,0
292452,186.379,-595.298,0,0
293754,196.262,-600.461,0,0
295056,199.484,-612.26,0,0
296357,193.345,-622.873,0,0
297659,183.465,-627.719,0,0
298960.525,174.209,-629.019,0,0
300262.15,164.989,-628.498,0,0
301563.775,156.495,-626.014,0,0
302865.4,148.949,-622.729,0,0
304167.025,141.507,-618.315,0,0
305468.65,135.408,-612.835,0,0
306770.275,130.488,-606.701,0,0
308071.9,127.485,-600.81,0,0
309373.525,124.938,-596.478,0,0
310675.15,121.606,-592.25,0,0
311976.775,118.609,-587.48,0,0
313278.4,116.407,-582.403,0,0
314580,115.143,-578.308,0,0
315882,113.51,-574.636,0,0
317183,112.329,-571.409,0,0
318485,111.319,-568.726,0,0
319787,109.97,-567.654,0,0
321088,106.543,-567.363,0,0
322390,101.097,-566.092,0,0
323691,94.4604,-562.292,0,0
324993,89.1397,-556.513,0,0
326295,85.2594,-549.94,0,0
327596,82.3728,-543.492,0,0
328898,79.8204,-536.567,0,0
330200,78.9489,-529.179,0,0
331501.125,79.9823,-522.565,0,0
332802.75,81.7326,-518.641,0,0
334104.375,81.5962,-515.932,0,0
335406.0,80.1122,-512.793,0,0
336707.625,78.2024,-508.556,0,0
338009.25,76.5415,-503.567,0,0
339310.875,75.3153,-497.316,0,0
340612.5,76.0047,-490.544,0,0
341914.125,78.5457,-484.365,0,0
343215.75,82.5418,-480.099,0,0
344517.375,86.2732,-478.186,0,0
345819.0,88.7669,-477.835,0,0
347121,89.5203,-478.127,0,0
348422,88.8506,-477.832,0,0
349724,87.6635,-477.068,0,0
351025,85.5106,-475.597,0,0
352327,83.4384,-472.623,0,0
353629,82.5485,-469.323,0,0
354930,81.7264,-466.426,0,0
356232,81.0085,-463.016,0,0
357534,80.9684,-460.013,0,0
358835,80.4449,-457.471,0,0
360137,79.2882,-454.516,0,0
361438,78.5531,-450.59,0,0
362740.1,78.5974,-446.903,0,0
364041.725,78.5744,-443.32,0,0
365343.35,78.6154,-439.388,0,0
366644.975,79.0805,-435.019,0,0
367946.6,80.3784,-430.09,0,0
369248.225,83.0874,-425.347,0,0
370549.85,87.2584,-421.076,0,0
371851.475,93.3503,-418.85,0,0
373153.1,99.0334,-420.166,0,0
374454.725,101.989,-423.38,0,0
375756.35,102.519,-426.128,0,0
377057.975,101.736,-427.898,0,0
378359.6,101.282,-428.361,0,0
379661,100.953,-429.507,0,0
380963,99.2717,-430.137,0,0
382264,98.7306,-429.703,0,0
383566,98.5556,-430.563,0,0
384868,97.3575,-432.763,0,0
386169,93.5902,-434.977,0,0
387471,88.0377,-434.349,0,0
388773,83.981,-430.985,0,0
390074,82.8267,-427.533,0,0
391376,82.2391,-426.385,0,0
392677,80.1095,-426.1,0,0
393979,76.6845,-425.35,0,0
395280.7,72.6558,-423.232,0,0
396582.325,68.6735,-419.962,0,0
397883.95,65.3815,-415.624,0,0
399185.575,62.856,-410.584,0,0
400006.6,61.7631,-407.139,0,0