File: Accelerated corrosion test data/2025-10-21_06-00-04/sample_5.csv
Frequency (Hz),Impedance (ohms),Phase (Radians),Temperature (C),Humidity (%)
10000.0,3513.84,-2311.19,0,0
11301.625,3352.7,-2506.12,0,0
12603.25,3042.02,-2166.62,0,0
13904.875,2890.2,-2251.58,0,0
15206.5,2741.64,-2336.87,0,0
16508.125,2562.08,-2156.06,0,0
17809.75,2409.1,-2032.94,0,0
19111.375,2249.99,-1798.35,0,0
20413.0,2164.98,-1893.77,0,0
21714.625,2072.17,-2001.54,0,0
23016.25,1972.29,-1870.76,0,0
24317.875,1872.1,-1665.21,0,0
25619.5,1764.23,-1431.39,0,0
26921.1,1578.29,-2424.66,0,0
28222.7,1611.11,-2029.97,0,0
29524.4,1460.76,-2213.43,0,0
30826,1384.88,-2179.13,0,0
32127.6,1275.65,-2212.98,0,0
33429.2,1204.02,-2178.78,0,0
34730.9,1136.41,-2144.62,0,0
36032.5,1093.9,-2081.37,0,0
37334.1,1039.04,-2041.92,0,0
38635.7,1020.33,-1958.44,0,0
39937.4,957.916,-1942.19,0,0
41239,903.981,-1916.63,0,0
42540.6,910.725,-1821.56,0,0
43842.225,862.874,-1798.31,0,0
45143.85,810.192,-1783.57,0,0
46445.475,776.934,-1748.95,0,0
47747.1,737.844,-1723.59,0,0
49048.725,722.388,-1675.97,0,0
50350.35,690.481,-1650.88,0,0
51651.975,672.056,-1613.66,0,0
52953.6,637.621,-1593.35,0,0
54255.225,639.062,-1539.82,0,0
55556.85,629.642,-1499.98,0,0
56858.475,595.38,-1487.86,0,0
58160.1,568.917,-1469.35,0,0
59461.7,572.254,-1422.57,0,0
60763.3,552.239,-1398.42,0,0
62065,538.365,-1369.76,0,0
63366.6,631.452,-319.677,0,0
64668.2,757.628,-673.163,0,0
65969.8,700.84,-997.341,0,0
67271.5,684.179,-983.786,0,0
68573.1,650.666,-1013.24,0,0
69874.7,636.266,-998.146,0,0
71176.3,616.524,-997.317,0,0
72478,595.694,-997.325,0,0
73779.6,581.17,-986.627,0,0
75081.2,559.357,-990.743,0,0
76382.825,538.858,-989.872,0,0
77684.45,523.138,-980.37,0,0
78986.075,509.838,-968.767,0,0
80287.7,501.348,-951.758,0,0
81589.325,482.325,-949.355,0,0
82890.95,468.171,-939.595,0,0
84192.575,458.218,-924.492,0,0
85494.2,447,-912.64,0,0
86795.825,430.357,-907.875,0,0
88097.45,428.609,-883.726,0,0
89399.075,406.277,-885.155,0,0
90700.7,368.887,-902.828,0,0
92002.3,358.014,-893.695,0,0
93303.9,347.877,-883.605,0,0
94605.6,341.866,-868.498,0,0
95907.2,324.895,-863.707,0,0
97208.8,318.613,-849.876,0,0
98510.4,307.648,-839.638,0,0
99812.1,304.121,-823.642,0,0
101114,293.463,-815.358,0,0
102415,282.978,-807.195,0,0
103717,273.78,-797.947,0,0
105019,273.448,-781.713,0,0
106320.175,260.925,-774.058,0,0
107621.8,257.014,-759.572,0,0
108923.425,252.702,-745.982,0,0
110225.05,250.589,-730.92,0,0
111526.675,265.455,-702.455,0,0
112828.3,247.522,-700.122,0,0
114129.925,242.342,-688.648,0,0
115431.55,236.533,-677.449,0,0
116733.175,232.251,-665.225,0,0
118034.8,231.833,-651.117,0,0
119336.425,231.195,-638.371,0,0
120638.05,225.491,-630.083,0,0
121939.675,261.414,-582.609,0,0
123241,236.253,-593.059,0,0
124543,228.132,-585.151,0,0
125845,223.623,-575.317,0,0
127146,218.238,-566.676,0,0
128448,216.718,-554.257,0,0
129749,212.543,-543.594,0,0
131051,208.271,-532.206,0,0
132353,204.988,-518.575,0,0
133654,202.376,-505.011,0,0
134956,200.089,-492.275,0,0
136258,199.301,-478.025,0,0
137559,200.832,-463.429,0,0
138860.775,205.682,-446.478,0,0
140162.4,205.081,-435.351,0,0
141464.025,203.275,-426.036,0,0
142765.65,207.795,-408.642,0,0
144067.275,207.452,-397.257,0,0
145368.9,209.04,-382.492,0,0
146670.525,210.21,-368.843,0,0
147972.15,211.997,-355.565,0,0
149273.775,218.035,-335.258,0,0
150575.4,221.172,-320.528,0,0
151877.025,228.522,-301.387,0,0
153178.65,237.953,-282.793,0,0
154480,250.39,-246.98,0,0
155782,263.097,-233.808,0,0
157084,278.879,-223.597,0,0
158385,296.038,-220.857,0,0
159687,314.091,-209.043,0,0
160988,334.525,-198.311,0,0
162290,355.084,-187.298,0,0
163592,377.813,-182.44,0,0
164893,399.768,-182.426,0,0
166195,419.075,-182.912,0,0
167497,437.644,-183.987,0,0
168798,454.188,-185.24,0,0
170100,472.632,-188.852,0,0
171401.375,490.665,-193.866,0,0
172703.0,504.201,-196.625,0,0
174004.625,515.226,-199.081,0,0
175306.25,531.752,-206.032,0,0
176607.875,544.906,-209.529,0,0
177909.5,559.27,-214.135,0,0
179211.125,572.764,-220.457,0,0
180512.75,587.426,-228.963,0,0
181814.375,599.289,-232.669,0,0
183116.0,614.488,-237.741,0,0
184417.625,627.991,-242.75,0,0
185719.25,630.245,-237.915,0,0
187021,652.682,-250.733,0,0
188322,670.327,-255.947,0,0
189624,692.2,-261.842,0,0
190926,719.198,-272.301,0,0
192227,746.77,-286.51,0,0
193529,773.274,-306.026,0,0
194831,813.607,-349.166,0,0
196132,842.941,-394.002,0,0
197434,864.206,-444.861,0,0
198735,876.796,-501.066,0,0
200037,874.081,-546.891,0,0
201339,865.209,-595.504,0,0
202640.35,845.458,-630.445,0,0
203941.975,802.08,-587.273,0,0
205243.6,785.86,-647.241,0,0
206545.225,760.455,-701.708,0,0
207846.85,727.756,-731.172,0,0
209148.475,693.721,-751.617,0,0
210450.1,659.085,-766.86,0,0
211751.725,622.394,-785.484,0,0
213053.35,587.393,-794.771,0,0
214354.975,555.218,-795.568,0,0
215656.6,517.109,-810.923,0,0
216958.225,478.566,-823.366,0,0
218259.85,450.862,-816.28,0,0
219561,438.748,-786.827,0,0
220863,416.582,-775.783,0,0
222165,398.815,-761.279,0,0
223466,390.899,-736.555,0,0
224768,357.862,-749.918,0,0
226070,348.616,-734.958,0,0
227371,341.569,-721.087,0,0
228673,362.227,-673.816,0,0
229974,353.484,-669.205,0,0
231276,348.211,-661.85,0,0
232578,342.589,-657.373,0,0
233879,401.607,-525.921,0,0
235180.95,390.774,-547.28,0,0
236482.575,390.114,-542.153,0,0
237784.2,390.409,-538.255,0,0
239085.825,392.727,-532.546,0,0
240387.45,392.262,-537.312,0,0
241689.075,391.999,-541.659,0,0
242990.7,387.645,-555.955,0,0
244292.325,379.014,-577.138,0,0
245593.95,370.46,-591.971,0,0
246895.575,366.516,-593.599,0,0
248197.2,360.104,-596.102,0,0
249498.825,356.874,-591.562,0,0
250800,361.088,-583.28,0,0
252102,368.187,-586.25,0,0
253404,374.937,-595.607,0,0
254705,376.459,-607.15,0,0
256007,371.168,-620.679,0,0
257309,360.727,-632.255,0,0
258610,347.607,-640.744,0,0
259912,333.218,-646.192,0,0
261213,317.39,-650.945,0,0
262515,304.973,-650.074,0,0
263817,290.53,-651.252,0,0
265118,279.989,-648.011,0,0
266420,269.394,-645.206,0,0
267721.55,257.856,-644.189,0,0
269023.175,248.974,-641.271,0,0
270324.8,242.326,-636.964,0,0
271626.425,235.187,-632.478,0,0
272928.05,227.162,-628.165,0,0
274229.675,221.976,-621.214,0,0
275531.3,214.825,-615.584,0,0
276832.925,203.785,-612.536,0,0
278134.55,197.94,-605.208,0,0
279436.175,178.929,-606.81,0,0
280737.8,175.484,-598.698,0,0
282039.425,167.128,-595.322,0,0
283341,161.362,-591.598,0,0
284643,165.083,-583.033,0,0
285944,162.031,-578.518,0,0
287246,159.123,-574.24,0,0
288548,156.044,-570.696,0,0
289849,154.763,-566.772,0,0
291151,152.266,-563.567,0,0
292452,149.538,-559.916,0,0
293754,145.64,-556.638,0,0
295056,142.639,-552.33,0,0
296357,140.284,-547.378,0,0
297659,139.426,-541.716,0,0
298960.525,136.95,-537.906,0,0
300262.15,136.794,-533.894,0,0
301563.775,135.227,-531.27,0,0
302865.4,134.719,-528.088,0,0
304167.025,133.713,-524.937,0,0
305468.65,130.862,-522.412,0,0
306770.275,128.969,-519.098,0,0
308071.9,128.592,-514.8,0,0
309373.525,125.386,-511.892,0,0
310675.15,124.416,-507.961,0,0
311976.775,122.656,-504.434,0,0
313278.4,120.135,-501.198,0,0
314580,120.404,-496.73,0,0
315882,113.856,-495.588,0,0
317183,113.074,-491.891,0,0
318485,111.585,-488.531,0,0
319787,107.791,-486.378,0,0
321088,105.407,-483.795,0,0
322390,104.528,-480.641,0,0
323691,105.085,-476.927,0,0
324993,103.848,-474.013,0,0
326295,102.195,-471.129,0,0
327596,99.9635,-468.346,0,0
328898,99.0284,-464.942,0,0
330200,98.6165,-461.294,0,0
331501.125,96.3921,-458.521,0,0
332802.75,95.1895,-455.303,0,0
334104.375,94.0812,-452.183,0,0
335406.0,92.8206,-449.192,0,0
336707.625,92.0759,-446.073,0,0
338009.25,91.0805,-443.14,0,0
339310.875,89.9404,-440.218,0,0
340612.5,88.8594,-437.379,0,0
341914.125,87.5247,-434.607,0,0
343215.75,86.3933,-431.862,0,0
344517.375,85.3634,-428.992,0,0
345819.0,84.3859,-426.314,0,0
347121,83.2779,-423.688,0,0
348422,80.5839,-421.727,0,0
349724,81.1172,-418.404,0,0
351025,80.5846,-415.567,0,0
352327,79.6872,-412.84,0,0
353629,78.9054,-410.044,0,0
354930,78.2778,-407.194,0,0
356232,77.5925,-404.382,0,0
357534,76.1208,-401.848,0,0
358835,75.6959,-398.872,0,0
360137,74.4343,-396.211,0,0
361438,72.8063,-393.678,0,0
362740.1,73.1332,-390.417,0,0
364041.725,72.6948,-387.45,0,0
365343.35,72.3519,-384.493,0,0
366644.975,71.9998,-381.515,0,0
367946.6,72.0013,-378.444,0,0
369248.225,71.9274,-375.495,0,0
370549.85,71.9685,-372.612,0,0
371851.475,72.019,-369.835,0,0
373153.1,72.2288,-367.196,0,0
374454.725,72.5937,-364.709,0,0
375756.35,72.6667,-362.516,0,0
377057.975,72.6595,-360.512,0,0
378359.6,72.6733,-358.296,0,0
379661,72.1779,-355.936,0,0
380963,71.7253,-353.407,0,0
382264,71.6692,-350.789,0,0
383566,71.4335,-348.451,0,0
384868,71.0157,-346.038,0,0
386169,70.6381,-343.394,0,0
387471,70.3382,-340.676,0,0
388773,70.0003,-337.928,0,0
390074,69.8774,-335.053,0,0
391376,69.8054,-332.179,0,0
392677,69.2062,-329.543,0,0
393979,71.1023,-325.851,0,0
395280.7,71.6668,-322.787,0,0
396582.325,72.2741,-319.687,0,0
397883.95,72.0486,-316.981,0,0
399185.575,72.47,-314.007,0,0
400006.6,72.7976,-312.114,0,0