File: Accelerated corrosion test data/2025-10-14_08-28-47/sample_6.csv
Frequency (Hz),Impedance (ohms),Phase (Radians),Temperature (C),Humidity (%)
10000.0,4132.83,-6680.58,0,0
11301.625,3506.25,-6270.43,0,0
12603.25,3009.9,-5883.8,0,0
13904.875,2610.82,-5532.59,0,0
15206.5,2286.18,-5208.55,0,0
16508.125,2018.34,-4913.63,0,0
17809.75,1795.96,-4646.22,0,0
19111.375,1610.15,-4400.47,0,0
20413.0,1451.12,-4179.2,0,0
21714.625,1315.5,-3975.92,0,0
23016.25,1200.59,-3786.73,0,0
24317.875,1099.8,-3619.86,0,0
25619.5,1010.93,-3463.2,0,0
26921.1,933.909,-3316.92,0,0
28222.7,866.256,-3184.15,0,0
29524.4,804.327,-3057.23,0,0
30826,753.486,-2941.07,0,0
32127.6,706.27,-2833.08,0,0
33429.2,667.734,-2736.36,0,0
34730.9,624.967,-2643.86,0,0
36032.5,587.147,-2557.2,0,0
37334.1,554.373,-2471.14,0,0
38635.7,525.358,-2390.51,0,0
39937.4,503.6,-2314.39,0,0
41239,482.943,-2248.59,0,0
42540.6,458.006,-2186.39,0,0
43842.225,438.353,-2120.43,0,0
45143.85,423.85,-2060.79,0,0
46445.475,410.782,-2007.7,0,0
47747.1,397.699,-1958.14,0,0
49048.725,385.465,-1914.86,0,0
50350.35,365.291,-1875.82,0,0
51651.975,345.117,-1829.36,0,0
52953.6,330.084,-1784.06,0,0
54255.225,315.585,-1739.97,0,0
55556.85,304.516,-1699.35,0,0
56858.475,293.223,-1656.92,0,0
58160.1,287.525,-1620.83,0,0
59461.7,277.775,-1588.79,0,0
60763.3,266.392,-1555.62,0,0
62065,253.544,-1520.91,0,0
63366.6,249.863,-1484.29,0,0
64668.2,243.657,-1458.13,0,0
65969.8,235.121,-1427.41,0,0
67271.5,228.533,-1399.74,0,0
68573.1,221.163,-1372.51,0,0
69874.7,213.797,-1345.83,0,0
71176.3,206.513,-1319.24,0,0
72478,200.221,-1292.49,0,0
73779.6,194.822,-1266.8,0,0
75081.2,189.99,-1242.54,0,0
76382.825,184.805,-1218.9,0,0
77684.45,179.739,-1195.45,0,0
78986.075,174.999,-1172.33,0,0
80287.7,170.636,-1149.43,0,0
81589.325,166.762,-1126.6,0,0
82890.95,163.781,-1104.16,0,0
84192.575,161.481,-1081.99,0,0
85494.2,160.705,-1060.38,0,0
86795.825,160.743,-1040.54,0,0
88097.45,160.718,-1021.84,0,0
89399.075,161.551,-1003.92,0,0
90700.7,162.592,-989.401,0,0
92002.3,159.468,-975.571,0,0
93303.9,156.213,-958.568,0,0
94605.6,155.573,-940.914,0,0
95907.2,156.095,-925.303,0,0
97208.8,156.165,-912.417,0,0
98510.4,154.038,-898.106,0,0
99812.1,154.698,-883.581,0,0
101114,155.025,-872.668,0,0
102415,152.645,-861.395,0,0
103717,150.049,-851.551,0,0
105019,143.662,-841.661,0,0
106320.175,133.808,-825.933,0,0
107621.8,129.977,-805.065,0,0
108923.425,131.13,-785.883,0,0
110225.05,134.042,-769.052,0,0
111526.675,139.12,-754.249,0,0
112828.3,143.846,-744.655,0,0
114129.925,144.49,-735.788,0,0
115431.55,145.863,-725.678,0,0
116733.175,145.584,-720.607,0,0
118034.8,137.854,-711.046,0,0
119336.425,133.676,-695.065,0,0
120638.05,135.014,-678.915,0,0
121939.675,137.921,-669.524,0,0
123241,136.238,-658.574,0,0
124543,136.111,-647.359,0,0
125845,134.861,-636.161,0,0
127146,133.386,-623.676,0,0
128448,133.253,-609.735,0,0
129749,135.159,-596.733,0,0
131051,136.676,-584.497,0,0
132353,138.829,-572,0,0
133654,142.025,-560.121,0,0
134956,145.04,-549.122,0,0
136258,148.363,-538.415,0,0
137559,152.468,-528.682,0,0
138860.775,155.263,-520.714,0,0
140162.4,156.474,-511.928,0,0
141464.025,158.575,-502.866,0,0
142765.65,158.952,-494.664,0,0
144067.275,158.554,-483.639,0,0
145368.9,160.428,-471.92,0,0
146670.525,162.988,-462.001,0,0
147972.15,163.22,-452.592,0,0
149273.775,162.67,-439.821,0,0
150575.4,164.55,-425.299,0,0
151877.025,168.022,-410.391,0,0
153178.65,175.142,-396.566,0,0
154480,180.908,-385.631,0,0
155782,186.58,-372.794,0,0
157084,194.852,-361.856,0,0
158385,200.385,-353.305,0,0
159687,204.826,-342.849,0,0
160988,209.425,-331.506,0,0
162290,214.116,-319.368,0,0
163592,219.393,-306.434,0,0
164893,224.486,-293.153,0,0
166195,230.049,-277.809,0,0
167497,236.989,-261.357,0,0
168798,245.589,-243.541,0,0
170100,255.779,-225.433,0,0
171401.375,267.039,-206.151,0,0
172703.0,280.252,-185.183,0,0
174004.625,296.154,-162.466,0,0
175306.25,316.144,-138.024,0,0
176607.875,341.423,-113.255,0,0
177909.5,372.385,-89.4889,0,0
179211.125,409.126,-68.2703,0,0
180512.75,450.174,-52.3448,0,0
181814.375,492.51,-39.2799,0,0
183116.0,538.836,-28.6512,0,0
184417.625,587.463,-20.1552,0,0
185719.25,642.361,-11.2412,0,0
187021,709.635,-6.30835,0,0
188322,788.567,-12.9328,0,0
189624,877.257,-36.3282,0,0
190926,970.915,-83.9712,0,0
192227,1058.47,-159.367,0,0
193529,1130.4,-258.462,0,0
194831,1180.95,-378.117,0,0
196132,1200.8,-512.449,0,0
197434,1184.1,-648.545,0,0
198735,1133.7,-771.449,0,0
200037,1060.59,-872.342,0,0
201339,972.952,-949.441,0,0
202640.35,878.454,-999.869,0,0
203941.975,787.841,-1026.63,0,0
205243.6,705.523,-1037.1,0,0
206545.225,632.118,-1036.03,0,0
207846.85,567.458,-1026.65,0,0
209148.475,511.299,-1012.14,0,0
210450.1,462.32,-994.421,0,0
211751.725,418.804,-974.339,0,0
213053.35,381.61,-952.055,0,0
214354.975,349.17,-929.207,0,0
215656.6,321.268,-905.629,0,0
216958.225,297.927,-882.146,0,0
218259.85,277.663,-859.382,0,0
219561,260.204,-836.841,0,0
220863,245.572,-814.757,0,0
222165,233.162,-793.153,0,0
223466,223.169,-771.836,0,0
224768,215.992,-750.986,0,0
226070,211.149,-731.631,0,0
227371,207.869,-714.058,0,0
228673,205.188,-697.46,0,0
229974,203.417,-681.125,0,0
231276,203.07,-665.156,0,0
232578,204.488,-649.647,0,0
233879,207.799,-634.909,0,0
235180.95,213.067,-621.419,0,0
236482.575,220.24,-609.72,0,0
237784.2,228.923,-600.114,0,0
239085.825,238.877,-592.974,0,0
240387.45,249.382,-588.701,0,0
241689.075,259.948,-587.318,0,0
242990.7,269.777,-588.655,0,0
244292.325,279.512,-592.63,0,0
245593.95,286.897,-601.18,0,0
246895.575,289.417,-610.696,0,0
248197.2,289.372,-619.22,0,0
249498.825,287.768,-626.261,0,0
250800,287.452,-633.279,0,0
252102,285.866,-643.286,0,0
253404,281.14,-654.763,0,0
254705,271.803,-666.236,0,0
256007,258.637,-674.642,0,0
257309,243.961,-679.222,0,0
258610,229.403,-680.572,0,0
259912,215.649,-679.732,0,0
261213,202.819,-677.138,0,0
262515,190.847,-673.131,0,0
263817,180.207,-668.093,0,0
265118,170.666,-662.436,0,0
266420,162.135,-656.682,0,0
267721.55,154.255,-650.698,0,0
269023.175,147.035,-644.636,0,0
270324.8,140.417,-638.363,0,0
271626.425,134.342,-632.222,0,0
272928.05,128.662,-625.908,0,0
274229.675,123.436,-619.591,0,0
275531.3,118.624,-613.288,0,0
276832.925,114.179,-606.974,0,0
278134.55,110.032,-600.529,0,0
279436.175,106.327,-593.878,0,0
280737.8,103.654,-587.159,0,0
282039.425,101.654,-581.468,0,0
283341,99.356,-576.185,0,0
284643,97.0623,-570.867,0,0
285944,95.3372,-565.769,0,0
287246,93.7955,-561.42,0,0
288548,91.479,-557.369,0,0
289849,89.1528,-552.948,0,0
291151,87.0469,-548.516,0,0
292452,84.9962,-544.336,0,0
293754,82.7512,-540.201,0,0
295056,80.2486,-535.864,0,0
296357,77.8479,-531.076,0,0
297659,76.0599,-525.962,0,0
298960.525,75.1326,-521.23,0,0
300262.15,74.0335,-517.226,0,0
301563.775,72.5603,-513.237,0,0
302865.4,71.1127,-509.145,0,0
304167.025,69.9493,-505.001,0,0
305468.65,68.901,-500.989,0,0
306770.275,67.9003,-497.285,0,0
308071.9,66.7817,-493.614,0,0
309373.525,65.573,-489.868,0,0
310675.15,64.5325,-486.117,0,0
311976.775,63.5368,-482.553,0,0
313278.4,62.4342,-478.99,0,0
314580,61.4915,-475.425,0,0
315882,60.5513,-471.819,0,0
317183,59.6134,-468.362,0,0
318485,58.7714,-464.866,0,0
319787,57.8966,-461.348,0,0
321088,57.1692,-457.923,0,0
322390,56.459,-454.498,0,0
323691,55.7817,-451.197,0,0
324993,55.1142,-447.947,0,0
326295,54.351,-444.691,0,0
327596,53.6429,-441.383,0,0
328898,53.0038,-438.092,0,0
330200,52.4967,-434.759,0,0
331501.125,52.0116,-431.467,0,0
332802.75,51.6185,-428.297,0,0
334104.375,51.1985,-425.118,0,0
335406.0,50.8454,-422.057,0,0
336707.625,50.5298,-418.961,0,0
338009.25,50.2243,-415.958,0,0
339310.875,49.9233,-412.929,0,0
340612.5,49.6859,-409.899,0,0
341914.125,49.5151,-406.835,0,0
343215.75,49.5479,-403.875,0,0
344517.375,49.5409,-401.195,0,0
345819.0,49.3345,-398.417,0,0
347121,49.26,-395.569,0,0
348422,49.282,-392.791,0,0
349724,49.4366,-390.1,0,0
351025,49.5735,-387.578,0,0
352327,49.6666,-385.129,0,0
353629,49.7948,-382.788,0,0
354930,49.8154,-380.585,0,0
356232,49.6898,-378.406,0,0
357534,49.484,-376.119,0,0
358835,49.265,-373.802,0,0
360137,49.045,-371.514,0,0
361438,48.8462,-369.184,0,0
362740.1,48.5907,-366.774,0,0
364041.725,48.3821,-364.356,0,0
365343.35,48.2849,-361.908,0,0
366644.975,48.2745,-359.467,0,0
367946.6,48.2123,-357.13,0,0
369248.225,48.2035,-354.815,0,0
370549.85,48.1366,-352.455,0,0
371851.475,48.1882,-350.129,0,0
373153.1,48.2953,-347.971,0,0
374454.725,48.3031,-346.003,0,0
375756.35,48.0004,-344.019,0,0
377057.975,47.65,-341.76,0,0
378359.6,47.3432,-339.388,0,0
379661,47.0968,-336.951,0,0
380963,46.8727,-334.401,0,0
382264,46.8861,-331.731,0,0
383566,47.182,-329.37,0,0
384868,47.1101,-327.243,0,0
386169,46.9751,-324.87,0,0
387471,46.8773,-322.424,0,0
388773,46.8329,-319.946,0,0
390074,46.8249,-317.406,0,0
391376,46.8776,-314.884,0,0
392677,46.9427,-312.311,0,0
393979,47.026,-309.749,0,0
395280.7,47.1621,-307.12,0,0
396582.325,47.3243,-304.472,0,0
397883.95,47.5191,-301.806,0,0
399185.575,47.7724,-299.108,0,0
400006.6,47.9942,-297.391,0,0