File: Accelerated corrosion test data/2025-10-14_08-28-47/sample_3.csv
Frequency (Hz),Impedance (ohms),Phase (Radians),Temperature (C),Humidity (%)
10000.0,250.265,-11798,0,0
11301.625,222.477,-10450.4,0,0
12603.25,201.719,-9378.78,0,0
13904.875,184.219,-8506.19,0,0
15206.5,172.768,-7774.6,0,0
16508.125,160.537,-7179.36,0,0
17809.75,156.147,-6650.59,0,0
19111.375,145.776,-6200.59,0,0
20413.0,159.207,-5801.15,0,0
21714.625,138.395,-5477.78,0,0
23016.25,127.684,-5171.89,0,0
24317.875,118.744,-4892.37,0,0
25619.5,112.918,-4645.31,0,0
26921.1,107.841,-4413.71,0,0
28222.7,102.984,-4207.03,0,0
29524.4,108.238,-4030.18,0,0
30826,100.529,-3858.28,0,0
32127.6,100.922,-3693.33,0,0
33429.2,98.7424,-3569.16,0,0
34730.9,87.4508,-3431.56,0,0
36032.5,83.0007,-3303.55,0,0
37334.1,79.9273,-3185.13,0,0
38635.7,77.544,-3075.19,0,0
39937.4,75.3045,-2972.74,0,0
41239,74.0399,-2875.7,0,0
42540.6,72.816,-2785.73,0,0
43842.225,71.6797,-2699.95,0,0
45143.85,70.5444,-2620.29,0,0
46445.475,69.4878,-2544.72,0,0
47747.1,69.8762,-2472.05,0,0
49048.725,68.2165,-2406.69,0,0
50350.35,66.1837,-2341.44,0,0
51651.975,65.7534,-2278.69,0,0
52953.6,66.0681,-2218.79,0,0
54255.225,69.0155,-2163.92,0,0
55556.85,66.289,-2116.49,0,0
56858.475,61.3287,-2063.71,0,0
58160.1,60.804,-2011.86,0,0
59461.7,61.2359,-1962.83,0,0
60763.3,62.6379,-1916.03,0,0
62065,64.6153,-1871.31,0,0
63366.6,68.3787,-1827.9,0,0
64668.2,77.2875,-1786.41,0,0
65969.8,91.6454,-1760.89,0,0
67271.5,75.5255,-1735.11,0,0
68573.1,75.794,-1697.44,0,0
69874.7,75.5328,-1668.31,0,0
71176.3,70.5291,-1637.6,0,0
72478,69.2343,-1605.06,0,0
73779.6,67.6823,-1576.64,0,0
75081.2,64.0688,-1548.68,0,0
76382.825,60.4925,-1519.31,0,0
77684.45,57.9447,-1490.55,0,0
78986.075,55.7327,-1462.05,0,0
80287.7,54.1847,-1433.97,0,0
81589.325,53.1188,-1406.84,0,0
82890.95,52.6011,-1380.27,0,0
84192.575,52.2777,-1354.51,0,0
85494.2,52.1774,-1329.56,0,0
86795.825,52.3588,-1305.27,0,0
88097.45,52.8926,-1281.34,0,0
89399.075,54.239,-1257.65,0,0
90700.7,56.3749,-1236.16,0,0
92002.3,58.6937,-1215.35,0,0
93303.9,61.607,-1196.57,0,0
94605.6,62.474,-1181.93,0,0
95907.2,57.3148,-1164.06,0,0
97208.8,56.0312,-1142.76,0,0
98510.4,55.7816,-1123.14,0,0
99812.1,55.2981,-1104.21,0,0
101114,54.9133,-1084.48,0,0
102415,56.2851,-1064.03,0,0
103717,60.1062,-1046.39,0,0
105019,63.3634,-1032.13,0,0
106320.175,62.8188,-1018.37,0,0
107621.8,60.5733,-1002.67,0,0
108923.425,58.7739,-985.278,0,0
110225.05,58.8276,-966.763,0,0
111526.675,61.2055,-948.795,0,0
112828.3,63.2719,-932.924,0,0
114129.925,64.7025,-916.962,0,0
115431.55,66.7493,-900.182,0,0
116733.175,70.4569,-883.55,0,0
118034.8,76.2771,-867.619,0,0
119336.425,82.9599,-855.567,0,0
120638.05,89.0041,-849.439,0,0
121939.675,86.0278,-841.053,0,0
123241,86.5203,-827.664,0,0
124543,88.1072,-816.227,0,0
125845,89.554,-805.858,0,0
127146,89.0996,-796.136,0,0
128448,87.4944,-785.424,0,0
129749,86.0112,-772.499,0,0
131051,87.0713,-759.729,0,0
132353,86.3623,-748.665,0,0
133654,85.7039,-736.783,0,0
134956,84.1282,-724.19,0,0
136258,82.6751,-710.85,0,0
137559,82.3871,-695.681,0,0
138860.775,83.6612,-682.089,0,0
140162.4,82.9435,-668.643,0,0
141464.025,82.561,-654.6,0,0
142765.65,81.7514,-638.686,0,0
144067.275,82.0606,-621.522,0,0
145368.9,83.7215,-603.486,0,0
146670.525,86.335,-584.791,0,0
147972.15,90.685,-564.893,0,0
149273.775,97.1387,-544.677,0,0
150575.4,107.537,-524.563,0,0
151877.025,120.1,-507.7,0,0
153178.65,132.69,-494.101,0,0
154480,142.614,-482.209,0,0
155782,150.917,-465.816,0,0
157084,162.815,-448.435,0,0
158385,179.214,-437.701,0,0
159687,183.575,-423.108,0,0
160988,198.898,-395.867,0,0
162290,224.123,-370.082,0,0
163592,259.671,-348.62,0,0
164893,307.57,-337.134,0,0
166195,359.401,-349.61,0,0
167497,398.584,-381.015,0,0
168798,420.195,-417.318,0,0
170100,419.939,-458.52,0,0
171401.375,405.609,-474.501,0,0
172703.0,401.568,-477.34,0,0
174004.625,409.828,-487.193,0,0
175306.25,411.772,-504.033,0,0
176607.875,409.23,-522.641,0,0
177909.5,387.616,-540.716,0,0
179211.125,364.055,-532.754,0,0
180512.75,359.31,-519.645,0,0
181814.375,364.43,-516.122,0,0
183116.0,357.292,-522.277,0,0
184417.625,342.881,-520.127,0,0
185719.25,328.229,-507.496,0,0
187021,323.122,-484.592,0,0
188322,329.655,-466.295,0,0
189624,334.307,-451.838,0,0
190926,343.948,-437.232,0,0
192227,353.093,-423.991,0,0
193529,363.709,-405.764,0,0
194831,386.834,-388.079,0,0
196132,419.181,-382.281,0,0
197434,442.376,-393.749,0,0
198735,456.152,-400.352,0,0
200037,466.218,-405.949,0,0
201339,471.479,-400.108,0,0
202640.35,491.638,-390.714,0,0
203941.975,521.552,-390.543,0,0
205243.6,550.01,-404.379,0,0
206545.225,561.508,-420.013,0,0
207846.85,581.267,-419.657,0,0
209148.475,613.185,-428.608,0,0
210450.1,645.83,-450.757,0,0
211751.725,672.513,-483.018,0,0
213053.35,693.265,-517.869,0,0
214354.975,707.495,-560.59,0,0
215656.6,713.724,-606.16,0,0
216958.225,710.655,-652.049,0,0
218259.85,697.498,-695.686,0,0
219561,677.668,-732.111,0,0
220863,658.83,-768.788,0,0
222165,629.358,-806.375,0,0
223466,584.296,-832.463,0,0
224768,542.809,-834.395,0,0
226070,521.652,-832.183,0,0
227371,504.156,-841.139,0,0
228673,478.706,-852.811,0,0
229974,451.637,-858.582,0,0
231276,423.866,-861.121,0,0
232578,397.659,-859.802,0,0
233879,373.398,-856.649,0,0
235180.95,350.737,-852.123,0,0
236482.575,326.628,-847.476,0,0
237784.2,302.465,-839.196,0,0
239085.825,278.708,-825.044,0,0
240387.45,261.416,-807.905,0,0
241689.075,247.091,-790.457,0,0
242990.7,238.239,-772.078,0,0
244292.325,233.757,-757.488,0,0
245593.95,228.149,-745.966,0,0
246895.575,222.73,-733.726,0,0
248197.2,218.873,-721.824,0,0
249498.825,218.494,-711.062,0,0
250800,216.725,-705.62,0,0
252102,210.266,-699.644,0,0
253404,202.247,-688.807,0,0
254705,197.51,-674.173,0,0
256007,198.047,-657.468,0,0
257309,205.565,-644.03,0,0
258610,212.86,-635.292,0,0
259912,224.529,-626.676,0,0
261213,240.381,-627.312,0,0
262515,250.773,-639.884,0,0
263817,249.057,-654.442,0,0
265118,238.87,-665.088,0,0
266420,224.406,-668.431,0,0
267721.55,210.277,-663.897,0,0
269023.175,201.253,-655.023,0,0
270324.8,195.571,-645.823,0,0
271626.425,194.024,-636.006,0,0
272928.05,193.775,-629.539,0,0
274229.675,192.968,-621.586,0,0
275531.3,196.64,-613.514,0,0
276832.925,203.958,-609.068,0,0
278134.55,211.518,-610.915,0,0
279436.175,215.216,-617.356,0,0
280737.8,213.278,-625.329,0,0
282039.425,206.629,-630.746,0,0
283341,197.948,-632.754,0,0
284643,188.785,-631.425,0,0
285944,180.649,-627.132,0,0
287246,175.048,-620.437,0,0
288548,173.334,-614.025,0,0
289849,172.642,-610.042,0,0
291151,171.42,-607.839,0,0
292452,168.213,-605.155,0,0
293754,166.38,-599.894,0,0
295056,168.034,-595.865,0,0
296357,170.535,-595.513,0,0
297659,170.829,-598.141,0,0
298960.525,167.757,-601.082,0,0
300262.15,162.78,-602.884,0,0
301563.775,156.471,-603.226,0,0
302865.4,149.657,-601.492,0,0
304167.025,143.481,-598.329,0,0
305468.65,138.045,-593.864,0,0
306770.275,134.173,-588.707,0,0
308071.9,131.818,-584.043,0,0
309373.525,129.842,-580.794,0,0
310675.15,127.159,-578.231,0,0
311976.775,123.233,-575.577,0,0
313278.4,118.667,-571.346,0,0
314580,115.002,-565.419,0,0
315882,113.658,-558.557,0,0
317183,114.385,-553.453,0,0
318485,114.986,-550.176,0,0
319787,114.892,-547.242,0,0
321088,115.15,-544.369,0,0
322390,116.269,-542.24,0,0
323691,116.881,-542.331,0,0
324993,115.677,-543.409,0,0
326295,112.371,-543.991,0,0
327596,108.084,-543.306,0,0
328898,103.611,-541.517,0,0
330200,99.4687,-538.765,0,0
331501.125,95.2187,-535.901,0,0
332802.75,90.8829,-532.316,0,0
334104.375,86.5605,-527.91,0,0
335406.0,82.7781,-522.414,0,0
336707.625,79.9788,-516.463,0,0
338009.25,77.9708,-510.45,0,0
339310.875,76.6604,-503.863,0,0
340612.5,76.7126,-497.069,0,0
341914.125,78.6283,-491.161,0,0
343215.75,81.3107,-487.234,0,0
344517.375,83.1706,-485.325,0,0
345819.0,83.4234,-483.673,0,0
347121,83.1507,-481.443,0,0
348422,82.4452,-478.953,0,0
349724,81.8816,-475.4,0,0
351025,82.7687,-471.68,0,0
352327,84.5257,-469.828,0,0
353629,84.7123,-469.367,0,0
354930,83.3345,-468.429,0,0
356232,81.6462,-466.473,0,0
357534,79.9414,-463.757,0,0
358835,78.8218,-460.242,0,0
360137,78.7135,-456.875,0,0
361438,78.586,-454.17,0,0
362740.1,78.2349,-451.2,0,0
364041.725,78.866,-447.794,0,0
365343.35,80.3747,-445.85,0,0
366644.975,80.8501,-445.509,0,0
367946.6,79.2264,-444.838,0,0
369248.225,76.8976,-442.432,0,0
370549.85,76.3348,-438.038,0,0
371851.475,77.9849,-435.401,0,0
373153.1,78.3243,-435.07,0,0
374454.725,76.545,-433.868,0,0
375756.35,74.5753,-431.164,0,0
377057.975,73.7971,-427.391,0,0
378359.6,74.2674,-424.009,0,0
379661,75.1802,-421.335,0,0
380963,76.03,-419.822,0,0
382264,75.9588,-418.329,0,0
383566,75.8793,-416.923,0,0
384868,75.0035,-415.675,0,0
386169,73.7621,-413.754,0,0
387471,72.4895,-411.196,0,0
388773,71.2716,-407.987,0,0
390074,70.8367,-403.981,0,0
391376,71.5072,-399.829,0,0
392677,73.4904,-396.277,0,0
393979,75.9391,-393.966,0,0
395280.7,78.2341,-392.843,0,0
396582.325,80.0403,-392.375,0,0
397883.95,81.1029,-392.623,0,0
399185.575,81.0672,-393.1,0,0
400006.6,80.6331,-393.207,0,0