File: Accelerated corrosion test data/2025-10-14_08-28-47/sample_2.csv
Frequency (Hz),Impedance (ohms),Phase (Radians),Temperature (C),Humidity (%)
10000.0,230.737,-11425.7,0,0
11301.625,204.777,-10120.5,0,0
12603.25,184.147,-9086.41,0,0
13904.875,187.727,-8241.12,0,0
15206.5,164.271,-7549.48,0,0
16508.125,143.775,-6954.6,0,0
17809.75,132.983,-6447.02,0,0
19111.375,128.8,-6008.65,0,0
20413.0,118.66,-5625.63,0,0
21714.625,127.612,-5296.74,0,0
23016.25,112.385,-4999.97,0,0
24317.875,102.955,-4733.21,0,0
25619.5,97.9091,-4489.92,0,0
26921.1,95.2764,-4271.52,0,0
28222.7,90.5109,-4072.21,0,0
29524.4,93.7,-3888.82,0,0
30826,88.0638,-3734.76,0,0
32127.6,82.1215,-3581.11,0,0
33429.2,80.0955,-3442.52,0,0
34730.9,75.8954,-3311.7,0,0
36032.5,73.329,-3190.7,0,0
37334.1,71.1815,-3077.12,0,0
38635.7,68.8237,-2972.1,0,0
39937.4,67.046,-2873.53,0,0
41239,65.562,-2780.81,0,0
42540.6,64.6312,-2694.04,0,0
43842.225,63.4447,-2611.5,0,0
45143.85,62.1571,-2534.27,0,0
46445.475,61.3094,-2461.59,0,0
47747.1,60.6874,-2392.28,0,0
49048.725,60.8013,-2328.64,0,0
50350.35,58.0618,-2266.47,0,0
51651.975,56.7311,-2207.39,0,0
52953.6,55.2545,-2150.11,0,0
54255.225,54.5243,-2095.44,0,0
55556.85,54.0604,-2043.56,0,0
56858.475,53.9993,-1993.86,0,0
58160.1,54.1367,-1946.52,0,0
59461.7,54.716,-1900.53,0,0
60763.3,56.3753,-1857.98,0,0
62065,59.0849,-1819.75,0,0
63366.6,55.7378,-1782.92,0,0
64668.2,53.1465,-1744.76,0,0
65969.8,50.7512,-1705.72,0,0
67271.5,51.4125,-1668.48,0,0
68573.1,53.4465,-1634.53,0,0
69874.7,56.1555,-1604.35,0,0
71176.3,52.5893,-1576.09,0,0
72478,47.9877,-1545.61,0,0
73779.6,45.2434,-1512.81,0,0
75081.2,45.3297,-1480.33,0,0
76382.825,47.0613,-1449.71,0,0
77684.45,49.8383,-1421.39,0,0
78986.075,53.0878,-1397.19,0,0
80287.7,51.8445,-1375.68,0,0
81589.325,49.3212,-1350.69,0,0
82890.95,48.1751,-1324.93,0,0
84192.575,48.876,-1300.21,0,0
85494.2,49.5616,-1276.69,0,0
86795.825,50.665,-1254.73,0,0
88097.45,51.1023,-1233.4,0,0
89399.075,51.4639,-1212.06,0,0
90700.7,51.3475,-1191.83,0,0
92002.3,52.9132,-1170.55,0,0
93303.9,55.3687,-1151.86,0,0
94605.6,55.4222,-1135.15,0,0
95907.2,54.4466,-1115.68,0,0
97208.8,57.8345,-1098.74,0,0
98510.4,57.7383,-1084.98,0,0
99812.1,53.4313,-1070.17,0,0
101114,50.6075,-1052.84,0,0
102415,47.0078,-1032.7,0,0
103717,46.1436,-1011.61,0,0
105019,49.3764,-991.275,0,0
106320.175,54.1809,-974.276,0,0
107621.8,57.716,-962.368,0,0
108923.425,56.2081,-950.254,0,0
110225.05,52.874,-935.049,0,0
111526.675,51.761,-917.131,0,0
112828.3,52.1702,-899.797,0,0
114129.925,53.7633,-882.62,0,0
115431.55,56.5792,-866.079,0,0
116733.175,59.9907,-850.792,0,0
118034.8,64.0289,-836.77,0,0
119336.425,67.6999,-824.663,0,0
120638.05,70.1286,-814.222,0,0
121939.675,69.5317,-803.208,0,0
123241,68.694,-790.349,0,0
124543,68.1354,-776.616,0,0
125845,68.2798,-761.787,0,0
127146,69.6636,-746.598,0,0
128448,72.6343,-732.176,0,0
129749,75.3932,-719.242,0,0
131051,78.0825,-706.358,0,0
132353,79.4573,-694.245,0,0
133654,80.7144,-680.589,0,0
134956,82.1112,-666.612,0,0
136258,84.3136,-651.631,0,0
137559,87.2467,-636.522,0,0
138860.775,90.4742,-621.661,0,0
140162.4,93.4875,-605.417,0,0
141464.025,99.2025,-586.519,0,0
142765.65,108.839,-569.288,0,0
144067.275,118.916,-554.064,0,0
145368.9,130.249,-538.804,0,0
146670.525,143.219,-524.688,0,0
147972.15,158.55,-510.745,0,0
149273.775,179.001,-497.707,0,0
150575.4,206.181,-493.934,0,0
151877.025,228.319,-504.743,0,0
153178.65,236.765,-519.501,0,0
154480,235.348,-530.413,0,0
155782,231.292,-533.388,0,0
157084,225.831,-533.126,0,0
158385,221.694,-526.208,0,0
159687,222.09,-519.55,0,0
160988,222.907,-512.864,0,0
162290,231.345,-509.157,0,0
163592,226.923,-516.085,0,0
164893,213.816,-513.245,0,0
166195,200.669,-499.519,0,0
167497,193.539,-480.541,0,0
168798,191.218,-458.391,0,0
170100,192.77,-436.378,0,0
171401.375,197.293,-413.881,0,0
172703.0,205.907,-389.954,0,0
174004.625,218.324,-365.715,0,0
175306.25,237.826,-341.313,0,0
176607.875,263.992,-324.837,0,0
177909.5,291.399,-314.464,0,0
179211.125,312.719,-315.198,0,0
180512.75,321.691,-313.385,0,0
181814.375,328.163,-297.592,0,0
183116.0,344.675,-277.37,0,0
184417.625,369.426,-253.947,0,0
185719.25,404.217,-235.766,0,0
187021,441.8,-224.02,0,0
188322,484.662,-216.409,0,0
189624,524.874,-215.104,0,0
190926,569.976,-210.38,0,0
192227,630.297,-209.821,0,0
193529,703.433,-228.107,0,0
194831,770.522,-276.117,0,0
196132,820.926,-336.851,0,0
197434,860.246,-402.412,0,0
198735,891.046,-482.878,0,0
200037,897.047,-566.287,0,0
201339,888.243,-654.973,0,0
202640.35,850.986,-733.188,0,0
203941.975,799.936,-792.939,0,0
205243.6,746.989,-839.693,0,0
206545.225,684.075,-866.018,0,0
207846.85,632.261,-873.748,0,0
209148.475,596.042,-879.176,0,0
210450.1,557.495,-891.87,0,0
211751.725,511.309,-895.204,0,0
213053.35,472.144,-884.392,0,0
214354.975,441.045,-870.354,0,0
215656.6,416.262,-855.927,0,0
216958.225,396.512,-839.669,0,0
218259.85,382.438,-824.497,0,0
219561,372.647,-810.194,0,0
220863,365.812,-799.084,0,0
222165,362.094,-788.804,0,0
223466,361.431,-785.211,0,0
224768,357.777,-784.053,0,0
226070,353.15,-782.118,0,0
227371,351.698,-782.597,0,0
228673,349.77,-788.496,0,0
229974,341.911,-798.644,0,0
231276,327.67,-806.28,0,0
232578,311.614,-810.893,0,0
233879,293.943,-812.274,0,0
235180.95,276.346,-810.876,0,0
236482.575,259.238,-807.412,0,0
237784.2,242.05,-801.766,0,0
239085.825,226.382,-793.668,0,0
240387.45,212.607,-784.124,0,0
241689.075,200.871,-774.276,0,0
242990.7,191.179,-763.875,0,0
244292.325,182.827,-755.19,0,0
245593.95,174.288,-747.848,0,0
246895.575,163.135,-741.396,0,0
248197.2,150.033,-730.737,0,0
249498.825,139.151,-717.024,0,0
250800,130.142,-701.436,0,0
252102,124.699,-684.229,0,0
253404,122.426,-668.043,0,0
254705,121.245,-652.167,0,0
256007,122.383,-636.417,0,0
257309,126.789,-622.064,0,0
258610,132.524,-610.032,0,0
259912,139.578,-599.305,0,0
261213,148.318,-591.186,0,0
262515,157.366,-585.954,0,0
263817,165.837,-583.55,0,0
265118,172.945,-583.478,0,0
266420,177.498,-584.943,0,0
267721.55,180.202,-586.13,0,0
269023.175,181.018,-587.038,0,0
270324.8,180.703,-585.257,0,0
271626.425,183.078,-581.161,0,0
272928.05,188.762,-577.511,0,0
274229.675,198.749,-576.694,0,0
275531.3,211.536,-584.429,0,0
276832.925,216.252,-601.884,0,0
278134.55,209.721,-617.6,0,0
279436.175,198.624,-627.959,0,0
280737.8,185.501,-633.624,0,0
282039.425,172.852,-636.216,0,0
283341,158.001,-635.333,0,0
284643,146.934,-630.127,0,0
285944,134.311,-626.219,0,0
287246,120.698,-615.049,0,0
288548,113.199,-597.906,0,0
289849,115.314,-578.904,0,0
291151,127.034,-565.916,0,0
292452,142.415,-565.079,0,0
293754,148.571,-574.614,0,0
295056,145.013,-579.114,0,0
296357,146.819,-578.899,0,0
297659,147.273,-588.551,0,0
298960.525,138.201,-594.844,0,0
300262.15,128.33,-595.746,0,0
301563.775,120.074,-592.434,0,0
302865.4,116.055,-589.295,0,0
304167.025,111.619,-589.187,0,0
305468.65,104.32,-589.062,0,0
306770.275,95.7453,-586.374,0,0
308071.9,87.8637,-581.229,0,0
309373.525,81.7256,-575.001,0,0
310675.15,76.7027,-568.843,0,0
311976.775,72.2435,-562.377,0,0
313278.4,68.7025,-555.637,0,0
314580,65.9342,-549.269,0,0
315882,63.5481,-542.964,0,0
317183,61.584,-536.667,0,0
318485,60.4212,-530.603,0,0
319787,59.4765,-525.028,0,0
321088,58.4484,-519.745,0,0
322390,57.446,-514.28,0,0
323691,56.6368,-508.466,0,0
324993,56.5236,-501.953,0,0
326295,58.6244,-495.498,0,0
327596,61.9858,-491.649,0,0
328898,64.0466,-489.469,0,0
330200,65.6317,-487.671,0,0
331501.125,66.4338,-486.867,0,0
332802.75,65.7478,-486.623,0,0
334104.375,63.3556,-485.441,0,0
335406.0,60.8297,-482.65,0,0
336707.625,58.8529,-479.264,0,0
338009.25,57.2256,-475.429,0,0
339310.875,55.8461,-471.381,0,0
340612.5,54.9505,-467.014,0,0
341914.125,54.5724,-462.726,0,0
343215.75,54.4307,-458.334,0,0
344517.375,54.749,-454.017,0,0
345819.0,55.6068,-449.808,0,0
347121,56.794,-446.118,0,0
348422,58.2225,-442.741,0,0
349724,59.8519,-439.695,0,0
351025,61.5136,-437.211,0,0
352327,62.9877,-435.348,0,0
353629,63.9307,-433.409,0,0
354930,65.0601,-431.386,0,0
356232,66.2677,-429.532,0,0
357534,67.7769,-427.891,0,0
358835,69.5193,-426.909,0,0
360137,70.8556,-426.744,0,0
361438,71.4066,-426.977,0,0
362740.1,71.0705,-427.178,0,0
364041.725,70.3384,-427.062,0,0
365343.35,69.2229,-426.565,0,0
366644.975,67.8393,-425.464,0,0
367946.6,66.9758,-423.755,0,0
369248.225,67.0085,-422.399,0,0
370549.85,66.4351,-422.084,0,0
371851.475,65.0016,-421.37,0,0
373153.1,63.766,-420.104,0,0
374454.725,62.6995,-419.034,0,0
375756.35,61.1401,-418.013,0,0
377057.975,59.4291,-416.529,0,0
378359.6,58.0284,-415.234,0,0
379661,55.3026,-413.995,0,0
380963,52.8336,-410.329,0,0
382264,52.8658,-407.484,0,0
383566,51.8415,-406.215,0,0
384868,49.8474,-404.316,0,0
386169,47.7741,-401.508,0,0
387471,46.2828,-398.163,0,0
388773,45.2741,-394.745,0,0
390074,44.8975,-391.218,0,0
391376,45.0006,-388.453,0,0
392677,44.5812,-386.598,0,0
393979,43.1025,-384.331,0,0
395280.7,41.553,-381.217,0,0
396582.325,40.7294,-377.222,0,0
397883.95,40.6864,-373.033,0,0
399185.575,41.2491,-369.478,0,0
400006.6,41.6258,-366.986,0,0