File: Accelerated corrosion test data/2025-10-14_08-28-47/sample_4.csv
Frequency (Hz),Impedance (ohms),Phase (Radians),Temperature (C),Humidity (%)
10000.0,261.079,-11905,0,0
11301.625,231.845,-10547.1,0,0
12603.25,211.438,-9461.44,0,0
13904.875,191.637,-8578.67,0,0
15206.5,180.018,-7851.01,0,0
16508.125,188.229,-7235.51,0,0
17809.75,154.684,-6727.37,0,0
19111.375,144.057,-6268.78,0,0
20413.0,139.484,-5867.31,0,0
21714.625,144.755,-5521.52,0,0
23016.25,124.31,-5220.44,0,0
24317.875,114.712,-4935.21,0,0
25619.5,111.498,-4681.37,0,0
26921.1,105.886,-4451.41,0,0
28222.7,119.975,-4248.79,0,0
29524.4,112.35,-4067.96,0,0
30826,98.3084,-3895.41,0,0
32127.6,99.6665,-3734.58,0,0
33429.2,89.1433,-3593.89,0,0
34730.9,84.2821,-3454.59,0,0
36032.5,80.9268,-3326.99,0,0
37334.1,79.221,-3208.26,0,0
38635.7,76.5591,-3095.81,0,0
39937.4,76.7425,-2989.8,0,0
41239,79.6809,-2895.39,0,0
42540.6,78.81,-2806.65,0,0
43842.225,73.1471,-2723.13,0,0
45143.85,70.7447,-2641.96,0,0
46445.475,69.968,-2564.4,0,0
47747.1,69.5188,-2494.59,0,0
49048.725,65.6343,-2425.3,0,0
50350.35,64.2519,-2357.61,0,0
51651.975,63.568,-2292.7,0,0
52953.6,65.3163,-2229.76,0,0
54255.225,73.2948,-2173.22,0,0
55556.85,71.63,-2130.01,0,0
56858.475,65.4506,-2075.88,0,0
58160.1,66.1872,-2023.75,0,0
59461.7,70.3562,-1973.4,0,0
60763.3,80.0493,-1934.87,0,0
62065,69.8362,-1902.18,0,0
63366.6,63.989,-1856.57,0,0
64668.2,64.2845,-1813.1,0,0
65969.8,66.2953,-1771.87,0,0
67271.5,70.2766,-1735.91,0,0
68573.1,73.7485,-1706.87,0,0
69874.7,66.2138,-1676.89,0,0
71176.3,64.6349,-1642.34,0,0
72478,59.1173,-1610.98,0,0
73779.6,57.5552,-1574.21,0,0
75081.2,59.7348,-1541.12,0,0
76382.825,62.1383,-1512.19,0,0
77684.45,65.05,-1484.47,0,0
78986.075,63.7647,-1461.7,0,0
80287.7,60.7858,-1434.57,0,0
81589.325,60.2254,-1408.58,0,0
82890.95,58.9621,-1383.38,0,0
84192.575,57.8157,-1358.47,0,0
85494.2,56.9088,-1334.16,0,0
86795.825,56.1786,-1310.48,0,0
88097.45,54.8175,-1287.83,0,0
89399.075,53.3792,-1263.56,0,0
90700.7,53.2617,-1240.32,0,0
92002.3,53.6244,-1217.15,0,0
93303.9,54.8708,-1196.28,0,0
94605.6,53.4847,-1175.94,0,0
95907.2,52.9451,-1153.32,0,0
97208.8,53.6762,-1131.68,0,0
98510.4,55.0524,-1110.09,0,0
99812.1,57.5984,-1089.28,0,0
101114,61.81,-1070.81,0,0
102415,61.1027,-1056.24,0,0
103717,58.2208,-1033.51,0,0
105019,61.9556,-1009.86,0,0
106320.175,68.5299,-989.342,0,0
107621.8,75.3624,-971.407,0,0
108923.425,83.7813,-954.719,0,0
110225.05,92.0237,-942.078,0,0
111526.675,98.0929,-931.376,0,0
112828.3,103.214,-921.47,0,0
114129.925,106.497,-912.877,0,0
115431.55,108.475,-904.65,0,0
116733.175,108.032,-896.237,0,0
118034.8,105.877,-885.497,0,0
119336.425,106.701,-871.46,0,0
120638.05,112.11,-866.297,0,0
121939.675,104.978,-860.064,0,0
123241,100.191,-847.595,0,0
124543,97.0949,-834.921,0,0
125845,95.2491,-822.672,0,0
127146,91.8864,-811.689,0,0
128448,87.0397,-800.065,0,0
129749,80.2978,-785.444,0,0
131051,75.4469,-767.571,0,0
132353,72.9127,-748.82,0,0
133654,72.1576,-730.013,0,0
134956,72.6908,-710.899,0,0
136258,74.7978,-692.407,0,0
137559,77.3844,-675.099,0,0
138860.775,79.3337,-657.247,0,0
140162.4,82.6977,-638.259,0,0
141464.025,87.7152,-619.302,0,0
142765.65,93.6309,-600.906,0,0
144067.275,100.239,-582.601,0,0
145368.9,107.961,-563.823,0,0
146670.525,117.545,-545.227,0,0
147972.15,128.315,-527.193,0,0
149273.775,140.712,-509.288,0,0
150575.4,155.365,-491.028,0,0
151877.025,174.187,-474.619,0,0
153178.65,196.421,-462.464,0,0
154480,218.017,-457.22,0,0
155782,235.331,-453.38,0,0
157084,250.195,-451.173,0,0
158385,265.404,-445.538,0,0
159687,286.426,-443.225,0,0
160988,303.435,-450.888,0,0
162290,310.59,-456.157,0,0
163592,315.611,-456.352,0,0
164893,323.744,-449.958,0,0
166195,339.174,-442.099,0,0
167497,366.201,-441.225,0,0
168798,392.733,-456.688,0,0
170100,411.036,-485.079,0,0
171401.375,407.893,-523.267,0,0
172703.0,383.83,-549.942,0,0
174004.625,350.542,-556.052,0,0
175306.25,322.403,-545.431,0,0
176607.875,303.979,-523.497,0,0
177909.5,297.366,-499.962,0,0
179211.125,296.586,-478.721,0,0
180512.75,300.409,-459.942,0,0
181814.375,304.401,-443.447,0,0
183116.0,307.467,-426.331,0,0
184417.625,311.721,-405.569,0,0
185719.25,319.925,-381.978,0,0
187021,332.307,-356.803,0,0
188322,350.005,-329.675,0,0
189624,374.795,-301.902,0,0
190926,408.199,-275.452,0,0
192227,450.676,-253.035,0,0
193529,501.002,-238.431,0,0
194831,556.431,-232.908,0,0
196132,615.752,-235.12,0,0
197434,682.771,-247.26,0,0
198735,755.936,-277.586,0,0
200037,827.499,-335.04,0,0
201339,877.927,-417.335,0,0
202640.35,897.337,-507.744,0,0
203941.975,897.764,-592.152,0,0
205243.6,877.708,-669.605,0,0
206545.225,848.285,-735.193,0,0
207846.85,807.634,-799.972,0,0
209148.475,747.992,-845.37,0,0
210450.1,689.459,-866.912,0,0
211751.725,638.593,-873.013,0,0
213053.35,599.472,-871.125,0,0
214354.975,570.199,-863.911,0,0
215656.6,554.331,-863.834,0,0
216958.225,532.999,-871.018,0,0
218259.85,511.394,-875.321,0,0
219561,490.77,-879.958,0,0
220863,467.393,-884.986,0,0
222165,443.711,-886.975,0,0
223466,420.94,-887.054,0,0
224768,399.291,-887.983,0,0
226070,374.006,-889.127,0,0
227371,345.918,-885.329,0,0
228673,317.355,-875.62,0,0
229974,293.347,-859.615,0,0
231276,274.72,-842.007,0,0
232578,260.302,-824.222,0,0
233879,249.257,-806.839,0,0
235180.95,240.967,-790.255,0,0
236482.575,234.2,-775.808,0,0
237784.2,229.071,-760.878,0,0
239085.825,227.344,-747.833,0,0
240387.45,226.192,-737.938,0,0
241689.075,224.501,-730.103,0,0
242990.7,221.518,-724.073,0,0
244292.325,216.667,-718.175,0,0
245593.95,210.112,-710.351,0,0
246895.575,204.762,-700.431,0,0
248197.2,201.725,-690.259,0,0
249498.825,199.223,-681.092,0,0
250800,197.351,-672.919,0,0
252102,193.344,-665.819,0,0
253404,187.377,-655.444,0,0
254705,183.391,-642.167,0,0
256007,181.265,-625.722,0,0
257309,184.547,-607.471,0,0
258610,193.341,-589.554,0,0
259912,208.62,-575.231,0,0
261213,226.981,-565.736,0,0
262515,247.207,-562.693,0,0
263817,269.193,-566.741,0,0
265118,286.491,-579.035,0,0
266420,299.432,-595.267,0,0
267721.55,306.425,-616.233,0,0
269023.175,303.51,-640.655,0,0
270324.8,288.669,-656.065,0,0
271626.425,277.853,-663.765,0,0
272928.05,267.989,-672.19,0,0
274229.675,255.657,-681.041,0,0
275531.3,237.498,-687.768,0,0
276832.925,216.742,-686.992,0,0
278134.55,196.981,-677.1,0,0
279436.175,186.642,-660.767,0,0
280737.8,185.38,-649.382,0,0
282039.425,182.936,-642.314,0,0
283341,183.087,-634.934,0,0
284643,182.543,-632.889,0,0
285944,178.314,-631.307,0,0
287246,171.642,-625.986,0,0
288548,166.118,-616.36,0,0
289849,167.633,-602.637,0,0
291151,177.288,-593.852,0,0
292452,189.402,-593.422,0,0
293754,198.272,-601.696,0,0
295056,199.306,-614.298,0,0
296357,191.373,-625.141,0,0
297659,179.839,-629.051,0,0
298960.525,169.99,-628.666,0,0
300262.15,161.462,-627.352,0,0
301563.775,152.92,-624.628,0,0
302865.4,145.443,-620.579,0,0
304167.025,138.517,-615.589,0,0
305468.65,133.079,-609.625,0,0
306770.275,129.03,-603.478,0,0
308071.9,126.695,-597.992,0,0
309373.525,124.838,-594.053,0,0
310675.15,121.811,-590.997,0,0
311976.775,118.266,-586.896,0,0
313278.4,115.382,-582.241,0,0
314580,113.672,-577.933,0,0
315882,112.372,-574.24,0,0
317183,111.124,-571.191,0,0
318485,109.581,-569.069,0,0
319787,107.457,-567.876,0,0
321088,103.462,-567.389,0,0
322390,97.3155,-565.745,0,0
323691,90.3005,-560.936,0,0
324993,85.7378,-553.886,0,0
326295,82.5948,-547.236,0,0
327596,79.9444,-540.57,0,0
328898,78.179,-533.558,0,0
330200,77.8907,-526.208,0,0
331501.125,79.0207,-520.15,0,0
332802.75,80.4946,-515.757,0,0
334104.375,80.6991,-513.227,0,0
335406.0,79.3218,-510.259,0,0
336707.625,77.201,-506.028,0,0
338009.25,75.7794,-500.426,0,0
339310.875,75.3099,-494.204,0,0
340612.5,76.3073,-487.509,0,0
341914.125,79.3105,-481.684,0,0
343215.75,83.9263,-478.165,0,0
344517.375,87.7118,-477.266,0,0
345819.0,89.6151,-477.729,0,0
347121,89.6735,-478.21,0,0
348422,88.3359,-478.074,0,0
349724,86.4306,-476.815,0,0
351025,84.2521,-474.642,0,0
352327,82.3825,-471.448,0,0
353629,81.3337,-467.447,0,0
354930,81.4658,-464.193,0,0
356232,81.4483,-461.542,0,0
357534,80.9028,-459.296,0,0
358835,79.757,-456.58,0,0
360137,78.7019,-453.053,0,0
361438,78.2251,-448.899,0,0
362740.1,78.8468,-444.954,0,0
364041.725,79.5676,-441.86,0,0
365343.35,79.5268,-438.601,0,0
366644.975,79.7755,-434.188,0,0
367946.6,81.4718,-429.555,0,0
369248.225,84.4426,-425.203,0,0
370549.85,88.7346,-421.824,0,0
371851.475,94.2367,-420.396,0,0
373153.1,99.2492,-422.018,0,0
374454.725,101.64,-425.719,0,0
375756.35,100.997,-428.448,0,0
377057.975,100.102,-429.729,0,0
378359.6,99.0679,-430.558,0,0
379661,97.6396,-430.978,0,0
380963,95.9452,-430.975,0,0
382264,95.1664,-429.683,0,0
383566,95.8802,-430.682,0,0
384868,93.8606,-433.656,0,0
386169,88.979,-435.044,0,0
387471,83.26,-433.428,0,0
388773,79.3579,-429.067,0,0
390074,78.6511,-424.788,0,0
391376,79.4287,-423.056,0,0
392677,77.9807,-423.924,0,0
393979,73.8102,-423.377,0,0
395280.7,69.3248,-420.563,0,0
396582.325,65.9955,-416.439,0,0
397883.95,63.4639,-412.101,0,0
399185.575,61.54,-407.301,0,0
400006.6,60.6525,-404.043,0,0