File: Accelerated corrosion test data/2025-10-04_18-00-03/sample_7.csv
Frequency (Hz),Impedance (ohms),Phase (Radians),Temperature (C),Humidity (%)
10000.0,276.064,-12058.4,0,0
11301.625,247.871,-10666.8,0,0
12603.25,264.803,-9627.38,0,0
13904.875,210.032,-8730.93,0,0
15206.5,200.931,-7989.55,0,0
16508.125,173.09,-7353.45,0,0
17809.75,169.003,-6799.19,0,0
19111.375,185.971,-6367.26,0,0
20413.0,168.969,-5960.9,0,0
21714.625,154.682,-5620.85,0,0
23016.25,132.221,-5302.97,0,0
24317.875,124.221,-5011.52,0,0
25619.5,120.154,-4748.11,0,0
26921.1,124.746,-4504.01,0,0
28222.7,181.007,-4297.67,0,0
29524.4,136.938,-4158.06,0,0
30826,136.231,-3977.19,0,0
32127.6,118.495,-3830.83,0,0
33429.2,102.874,-3679.84,0,0
34730.9,93.9477,-3535.64,0,0
36032.5,89.733,-3402.66,0,0
37334.1,87.2309,-3279.32,0,0
38635.7,87.6151,-3162.77,0,0
39937.4,98.698,-3062.33,0,0
41239,88.1431,-2975.34,0,0
42540.6,81.0277,-2879.82,0,0
43842.225,80.503,-2791.72,0,0
45143.85,81.5567,-2714.45,0,0
46445.475,78.9015,-2640.63,0,0
47747.1,72.1986,-2565.81,0,0
49048.725,69.3276,-2495.56,0,0
50350.35,67.3715,-2428.74,0,0
51651.975,65.8837,-2365.28,0,0
52953.6,64.8316,-2304.98,0,0
54255.225,63.5131,-2248.23,0,0
55556.85,62.3656,-2193.44,0,0
56858.475,61.6239,-2141.3,0,0
58160.1,60.8575,-2091.12,0,0
59461.7,60.9238,-2043.86,0,0
60763.3,60.498,-2000.12,0,0
62065,58.5564,-1956.8,0,0
63366.6,57.3277,-1914.36,0,0
64668.2,56.417,-1873.85,0,0
65969.8,56.4805,-1835.51,0,0
67271.5,54.8306,-1798.76,0,0
68573.1,53.561,-1762.04,0,0
69874.7,53.1291,-1726.75,0,0
71176.3,52.8706,-1693.41,0,0
72478,51.7037,-1661.1,0,0
73779.6,50.9565,-1629.4,0,0
75081.2,50.4042,-1598.72,0,0
76382.825,49.8992,-1568.99,0,0
77684.45,49.5429,-1540.12,0,0
78986.075,49.2864,-1512.29,0,0
80287.7,49.0979,-1485.3,0,0
81589.325,48.8326,-1459.04,0,0
82890.95,48.7738,-1433.38,0,0
84192.575,48.7071,-1408.48,0,0
85494.2,48.9128,-1384.46,0,0
86795.825,48.8393,-1361.13,0,0
88097.45,49.1864,-1338.21,0,0
89399.075,48.966,-1316.01,0,0
90700.7,49.2124,-1294.03,0,0
92002.3,49.7606,-1272.81,0,0
93303.9,49.7957,-1251.68,0,0
94605.6,52.8704,-1231.89,0,0
95907.2,51.6704,-1214.52,0,0
97208.8,51.2354,-1194.46,0,0
98510.4,52.0493,-1175.09,0,0
99812.1,51.7873,-1156.97,0,0
101114,53.1001,-1137.7,0,0
102415,54.7301,-1119.75,0,0
103717,57.2021,-1102.77,0,0
105019,58.721,-1087.89,0,0
106320.175,58.3287,-1072.2,0,0
107621.8,59.2811,-1055.62,0,0
108923.425,60.3729,-1040.01,0,0
110225.05,60.6683,-1023.69,0,0
111526.675,63.5077,-1006.54,0,0
112828.3,67.3985,-990.681,0,0
114129.925,72.4403,-976.815,0,0
115431.55,77.7444,-964.118,0,0
116733.175,85.5029,-954.208,0,0
118034.8,88.9375,-949.236,0,0
119336.425,91.5603,-945.33,0,0
120638.05,85.9614,-944.06,0,0
121939.675,75.6244,-933.895,0,0
123241,69.8002,-920.991,0,0
124543,65.1498,-906.758,0,0
125845,61.6094,-893.488,0,0
127146,58.3119,-878.837,0,0
128448,56.6317,-863.578,0,0
129749,55.5642,-849.21,0,0
131051,54.5599,-834.569,0,0
132353,53.7252,-819.663,0,0
133654,54.4307,-804.002,0,0
134956,57.7548,-789.076,0,0
136258,62.168,-776.471,0,0
137559,63.0839,-768.651,0,0
138860.775,61.6182,-756.86,0,0
140162.4,61.4863,-743.191,0,0
141464.025,62.1259,-730.204,0,0
142765.65,63.0841,-716.461,0,0
144067.275,65.3809,-703.103,0,0
145368.9,67.008,-690.856,0,0
146670.525,68.1465,-677.593,0,0
147972.15,69.6543,-664.496,0,0
149273.775,71.0615,-650.979,0,0
150575.4,71.9229,-635.62,0,0
151877.025,74.2223,-618.428,0,0
153178.65,79.2074,-600.31,0,0
154480,86.245,-582.557,0,0
155782,95.9519,-565.19,0,0
157084,107.897,-550.135,0,0
158385,120.528,-538.329,0,0
159687,128.973,-529.567,0,0
160988,132.716,-514.062,0,0
162290,143.161,-490.116,0,0
163592,162.763,-467.373,0,0
164893,189.732,-449.07,0,0
166195,219.508,-431.778,0,0
167497,266.755,-419.896,0,0
168798,319.019,-429.931,0,0
170100,361.876,-460.862,0,0
171401.375,395.47,-506.879,0,0
172703.0,405.877,-560.531,0,0
174004.625,383.507,-612.627,0,0
175306.25,343.369,-633.057,0,0
176607.875,322.872,-622.996,0,0
177909.5,330.227,-626.802,0,0
179211.125,330.511,-663.275,0,0
180512.75,295.29,-685.035,0,0
181814.375,257.517,-697.061,0,0
183116.0,214.882,-687.482,0,0
184417.625,186.246,-662.854,0,0
185719.25,170.823,-639.501,0,0
187021,155.674,-614.131,0,0
188322,152.49,-588.747,0,0
189624,147.417,-573.175,0,0
190926,140.317,-549.737,0,0
192227,140.543,-524.261,0,0
193529,143.265,-499.693,0,0
194831,150.585,-475.107,0,0
196132,162.126,-453.771,0,0
197434,174.725,-434.289,0,0
198735,187.53,-416.027,0,0
200037,202.201,-396.234,0,0
201339,222.233,-375.71,0,0
202640.35,247.615,-356.623,0,0
203941.975,279.667,-342.288,0,0
205243.6,315.994,-335.954,0,0
206545.225,354.841,-340.776,0,0
207846.85,380.95,-352.081,0,0
209148.475,409.656,-350.673,0,0
210450.1,462.133,-366.817,0,0
211751.725,499.367,-414.206,0,0
213053.35,508.311,-462.036,0,0
214354.975,506.653,-505.561,0,0
215656.6,492.128,-537.507,0,0
216958.225,482.311,-565.612,0,0
218259.85,459.108,-593.47,0,0
219561,427.694,-607.581,0,0
220863,398.953,-602.06,0,0
222165,385.534,-588.152,0,0
223466,384.124,-576.678,0,0
224768,387.425,-568.752,0,0
226070,398.112,-561.228,0,0
227371,416.709,-567.657,0,0
228673,432.968,-582.398,0,0
229974,442.969,-611.066,0,0
231276,440.701,-644.284,0,0
232578,424.491,-673.662,0,0
233879,400.76,-703.911,0,0
235180.95,355.362,-719.148,0,0
236482.575,318.907,-709.615,0,0
237784.2,294.123,-699.066,0,0
239085.825,272.144,-679.128,0,0
240387.45,267.854,-659.719,0,0
241689.075,263.328,-655.294,0,0
242990.7,249.765,-646.533,0,0
244292.325,242.368,-627.259,0,0
245593.95,248.88,-611.701,0,0
246895.575,253.23,-607.449,0,0
248197.2,254.113,-602.949,0,0
249498.825,256.892,-597.767,0,0
250800,261.302,-595.843,0,0
252102,264.477,-596.517,0,0
253404,266.334,-600.32,0,0
254705,263.944,-606.439,0,0
256007,255.961,-609.942,0,0
257309,246.536,-608.616,0,0
258610,237.81,-602.693,0,0
259912,233.855,-594.441,0,0
261213,231.455,-584.651,0,0
262515,236.638,-572.912,0,0
263817,248.629,-569.93,0,0
265118,256.152,-575.544,0,0
266420,258.925,-579.904,0,0
267721.55,262.404,-585.96,0,0
269023.175,261.913,-593.463,0,0
270324.8,262.369,-598.104,0,0
271626.425,266.081,-607.878,0,0
272928.05,268.672,-629.02,0,0
274229.675,249.094,-657.01,0,0
275531.3,212.663,-668.398,0,0
276832.925,177.169,-659.471,0,0
278134.55,152.381,-638.032,0,0
279436.175,141.572,-614.129,0,0
280737.8,138.568,-594.376,0,0
282039.425,138.472,-581.073,0,0
283341,135.838,-568.444,0,0
284643,135.564,-553.248,0,0
285944,140.49,-540.202,0,0
287246,146.079,-531.538,0,0
288548,149.423,-524.238,0,0
289849,153.492,-515.189,0,0
291151,159.995,-506.691,0,0
292452,167.961,-500.764,0,0
293754,175.889,-496.133,0,0
295056,184.25,-491.977,0,0
296357,194.639,-488.369,0,0
297659,207.699,-487.738,0,0
298960.525,221.135,-491.685,0,0
300262.15,234.414,-498.185,0,0
301563.775,249.313,-510.349,0,0
302865.4,261.434,-534.104,0,0
304167.025,256.003,-563.504,0,0
305468.65,240.564,-584.111,0,0
306770.275,220.618,-597.457,0,0
308071.9,199.413,-602.333,0,0
309373.525,180.447,-601.342,0,0
310675.15,164.866,-596.273,0,0
311976.775,152.969,-589.523,0,0
313278.4,143.535,-583.066,0,0
314580,134.942,-576.058,0,0
315882,128.263,-567.819,0,0
317183,124.229,-559.986,0,0
318485,121.29,-553.855,0,0
319787,118.833,-547.794,0,0
321088,117.699,-543.026,0,0
322390,115.955,-539.673,0,0
323691,113.432,-536.765,0,0
324993,110.616,-533.544,0,0
326295,108.007,-530.022,0,0
327596,105.702,-527.279,0,0
328898,102.567,-524.713,0,0
330200,99.2543,-521.64,0,0
331501.125,95.9733,-518.677,0,0
332802.75,91.9656,-516.03,0,0
334104.375,87.0412,-512.242,0,0
335406.0,82.5015,-507.165,0,0
336707.625,78.3819,-501.466,0,0
338009.25,75.0562,-494.877,0,0
339310.875,72.9459,-488.273,0,0
340612.5,71.3989,-481.857,0,0
341914.125,70.3973,-475.367,0,0
343215.75,70.1739,-469.001,0,0
344517.375,70.6612,-463.146,0,0
345819.0,71.7683,-458.138,0,0
347121,72.6298,-454.104,0,0
348422,72.6348,-450.581,0,0
349724,72.0623,-446.326,0,0
351025,71.7472,-441.551,0,0
352327,72.1372,-436.126,0,0
353629,73.8284,-431.116,0,0
354930,75.9996,-427.455,0,0
356232,77.6738,-424.839,0,0
357534,78.0089,-422.723,0,0
358835,77.1469,-419.642,0,0
360137,76.8557,-414.933,0,0
361438,77.844,-409.952,0,0
362740.1,79.8799,-405.386,0,0
364041.725,82.2453,-401.672,0,0
365343.35,84.957,-398.579,0,0
366644.975,87.5481,-396.3,0,0
367946.6,89.6029,-394.355,0,0
369248.225,91.8561,-392.956,0,0
370549.85,92.9394,-392.712,0,0
371851.475,91.9555,-391.604,0,0
373153.1,91.1582,-388.222,0,0
374454.725,91.7727,-384.451,0,0
375756.35,92.9576,-380.874,0,0
377057.975,94.5257,-377.625,0,0
378359.6,96.0376,-374.203,0,0
379661,98.357,-370.591,0,0
380963,101.227,-367.701,0,0
382264,103.988,-365.077,0,0
383566,107.157,-362.669,0,0
384868,110.286,-360.879,0,0
386169,113.174,-359.304,0,0
387471,116.003,-357.308,0,0
388773,119.257,-355.396,0,0
390074,123.385,-353.58,0,0
391376,127.739,-352.797,0,0
392677,131.82,-352.255,0,0
393979,136.468,-351.699,0,0
395280.7,141.88,-351.628,0,0
396582.325,148.254,-352.765,0,0
397883.95,155.623,-356.029,0,0
399185.575,161.95,-363.104,0,0
400006.6,164.308,-368.994,0,0