File: Accelerated corrosion test data/2025-10-04_18-00-03/sample_1.csv
Frequency (Hz),Impedance (ohms),Phase (Radians),Temperature (C),Humidity (%)
10000.0,238.171,-12238.9,0,0
11301.625,212.033,-10839.4,0,0
12603.25,192.75,-9736.67,0,0
13904.875,180.328,-8810.53,0,0
15206.5,180.405,-8077.76,0,0
16508.125,154.075,-7448.63,0,0
17809.75,146.293,-6912.86,0,0
19111.375,134.553,-6441.65,0,0
20413.0,153.795,-5998.66,0,0
21714.625,138.182,-5684.87,0,0
23016.25,122.101,-5376.82,0,0
24317.875,112.463,-5082.96,0,0
25619.5,103.984,-4818.16,0,0
26921.1,112.259,-4568.86,0,0
28222.7,110.012,-4364.31,0,0
29524.4,106.987,-4197.57,0,0
30826,100.294,-4010.83,0,0
32127.6,97.8411,-3850.95,0,0
33429.2,88.6282,-3707.19,0,0
34730.9,81.3352,-3565.27,0,0
36032.5,77.7454,-3433.66,0,0
37334.1,74.7635,-3311.01,0,0
38635.7,72.5353,-3197.04,0,0
39937.4,70.7311,-3090.24,0,0
41239,71.9127,-2990.71,0,0
42540.6,70.3748,-2898.37,0,0
43842.225,67.4158,-2811.29,0,0
45143.85,68.5995,-2729.36,0,0
46445.475,65.5458,-2653.19,0,0
47747.1,63.6584,-2579.21,0,0
49048.725,61.2657,-2508.8,0,0
50350.35,59.5291,-2441.97,0,0
51651.975,58.5901,-2378.29,0,0
52953.6,57.644,-2317.08,0,0
54255.225,56.6958,-2260,0,0
55556.85,55.8336,-2204.25,0,0
56858.475,54.8461,-2151.23,0,0
58160.1,54.5167,-2100.54,0,0
59461.7,54.2997,-2052.31,0,0
60763.3,54.3898,-2006.23,0,0
62065,53.1152,-1962.37,0,0
63366.6,52.424,-1918.44,0,0
64668.2,52.9934,-1876.55,0,0
65969.8,55.0452,-1838.43,0,0
67271.5,53.6611,-1801.82,0,0
68573.1,53.362,-1766.19,0,0
69874.7,52.1092,-1732.19,0,0
71176.3,50.3983,-1697.39,0,0
72478,48.5543,-1663.68,0,0
73779.6,48.1442,-1630.14,0,0
75081.2,48.484,-1597.89,0,0
76382.825,49.2497,-1566.56,0,0
77684.45,50.0856,-1537.19,0,0
78986.075,51.9296,-1509.43,0,0
80287.7,51.1033,-1483.08,0,0
81589.325,50.7619,-1454.99,0,0
82890.95,51.1659,-1428.12,0,0
84192.575,52.7961,-1401.74,0,0
85494.2,55.0087,-1377.3,0,0
86795.825,56.0088,-1353.82,0,0
88097.45,56.4415,-1330.65,0,0
89399.075,57.7758,-1306.17,0,0
90700.7,61.6185,-1282.51,0,0
92002.3,68.0238,-1261.16,0,0
93303.9,75.2555,-1244.39,0,0
94605.6,73.7408,-1237.03,0,0
95907.2,67.3651,-1218.64,0,0
97208.8,64.823,-1198.12,0,0
98510.4,64.4235,-1177.82,0,0
99812.1,63.3077,-1157.35,0,0
101114,63.7667,-1137.69,0,0
102415,63.2409,-1115.92,0,0
103717,67.9891,-1094.7,0,0
105019,74.6934,-1076.77,0,0
106320.175,81.3174,-1060.72,0,0
107621.8,87.9761,-1048.15,0,0
108923.425,92.6939,-1037.21,0,0
110225.05,94.1697,-1028.53,0,0
111526.675,94.7818,-1016.45,0,0
112828.3,96.9789,-1006.8,0,0
114129.925,96.3299,-999.319,0,0
115431.55,92.2063,-989.831,0,0
116733.175,86.9598,-977.439,0,0
118034.8,83.0991,-962.635,0,0
119336.425,81.613,-947.056,0,0
120638.05,82.2094,-932.925,0,0
121939.675,81.0486,-920.381,0,0
123241,79.417,-906.002,0,0
124543,79.0807,-890.803,0,0
125845,79.6814,-875.961,0,0
127146,80.8254,-861.609,0,0
128448,82.8727,-846.597,0,0
129749,85.8154,-832.06,0,0
131051,91.0377,-819.091,0,0
132353,95.1547,-808.43,0,0
133654,98.5448,-798.225,0,0
134956,100.84,-787.902,0,0
136258,104.17,-776.872,0,0
137559,108.773,-767.125,0,0
138860.775,111.187,-761.537,0,0
140162.4,110.613,-753.241,0,0
141464.025,110.253,-742.867,0,0
142765.65,111.097,-731.71,0,0
144067.275,112.3,-720.703,0,0
145368.9,114.566,-709.644,0,0
146670.525,117.339,-698.666,0,0
147972.15,120.234,-689.237,0,0
149273.775,122.043,-679.977,0,0
150575.4,123.476,-671.096,0,0
151877.025,122.267,-659.638,0,0
153178.65,122.593,-644.848,0,0
154480,126.019,-628.571,0,0
155782,133.53,-611.567,0,0
157084,145.483,-596.618,0,0
158385,157.643,-587.103,0,0
159687,168.471,-576.217,0,0
160988,185.672,-566.138,0,0
162290,202.743,-564.799,0,0
163592,216.961,-565.241,0,0
164893,229.202,-567.351,0,0
166195,243.59,-575.123,0,0
167497,248.576,-588.185,0,0
168798,245.803,-598.699,0,0
170100,238.125,-603.806,0,0
171401.375,231.158,-602.661,0,0
172703.0,225.206,-600.105,0,0
174004.625,221.338,-593.325,0,0
175306.25,221.738,-587.445,0,0
176607.875,221.115,-585.965,0,0
177909.5,218.056,-582.964,0,0
179211.125,215.144,-579.793,0,0
180512.75,209.172,-577.325,0,0
181814.375,201.176,-568.923,0,0
183116.0,193.828,-559.115,0,0
184417.625,188.751,-543.746,0,0
185719.25,187.947,-527.951,0,0
187021,189.264,-513.515,0,0
188322,191.164,-498.866,0,0
189624,194.332,-482.335,0,0
190926,200.482,-466.549,0,0
192227,207.303,-450.562,0,0
193529,215.27,-434.72,0,0
194831,225.257,-417.757,0,0
196132,237.985,-399.904,0,0
197434,254.632,-381.793,0,0
198735,274.599,-366.629,0,0
200037,294.884,-351.285,0,0
201339,321.099,-333.382,0,0
202640.35,357.231,-319.369,0,0
203941.975,400.077,-312.759,0,0
205243.6,452.17,-320.246,0,0
206545.225,496.456,-348.304,0,0
207846.85,526.271,-387.02,0,0
209148.475,541.063,-427.561,0,0
210450.1,538.251,-461.753,0,0
211751.725,530.24,-480.902,0,0
213053.35,530.257,-486.292,0,0
214354.975,539.749,-496.479,0,0
215656.6,550.354,-510.928,0,0
216958.225,557.546,-523.649,0,0
218259.85,573.603,-538.147,0,0
219561,588.577,-556.872,0,0
220863,607.354,-581.741,0,0
222165,624.445,-620.348,0,0
223466,630.235,-666.489,0,0
224768,623.817,-716.013,0,0
226070,605.217,-766.171,0,0
227371,572.384,-810.606,0,0
228673,527.152,-843.219,0,0
229974,480.567,-859.944,0,0
231276,436.463,-864.285,0,0
232578,400.893,-859.877,0,0
233879,371.515,-855.335,0,0
235180.95,345.955,-849.366,0,0
236482.575,322.116,-843.286,0,0
237784.2,300.905,-836.696,0,0
239085.825,278.749,-830.198,0,0
240387.45,257.037,-819.183,0,0
241689.075,240.001,-806.498,0,0
242990.7,225.37,-794.052,0,0
244292.325,213.086,-782.366,0,0
245593.95,201.056,-771.511,0,0
246895.575,189.292,-759.846,0,0
248197.2,179.4,-747.179,0,0
249498.825,171.011,-734.648,0,0
250800,163.808,-722.619,0,0
252102,157.287,-710.487,0,0
253404,151.597,-698.113,0,0
254705,147.221,-685.034,0,0
256007,145.042,-672.416,0,0
257309,143.599,-660.593,0,0
258610,143.542,-648.572,0,0
259912,145.692,-637.344,0,0
261213,149.452,-627.787,0,0
262515,154.078,-620.444,0,0
263817,159.451,-614.359,0,0
265118,166.236,-611.13,0,0
266420,172.376,-612.444,0,0
267721.55,174.968,-618.294,0,0
269023.175,169.855,-624.945,0,0
270324.8,159.612,-625.8,0,0
271626.425,150.156,-620.481,0,0
272928.05,144.278,-612.125,0,0
274229.675,141.704,-603.569,0,0
275531.3,141.056,-595.956,0,0
276832.925,141.825,-589.005,0,0
278134.55,144.158,-584.011,0,0
279436.175,146.422,-581.149,0,0
280737.8,146.96,-580.342,0,0
282039.425,145.665,-579.142,0,0
283341,143.243,-577.737,0,0
284643,140.271,-574.878,0,0
285944,136.678,-571.556,0,0
287246,132.295,-566.372,0,0
288548,130.011,-557.739,0,0
289849,132.744,-549.731,0,0
291151,136.084,-546.66,0,0
292452,136.011,-544.585,0,0
293754,134.482,-540.115,0,0
295056,134.732,-533.497,0,0
296357,137.799,-526.608,0,0
297659,142.583,-521.968,0,0
298960.525,147.736,-518.6,0,0
300262.15,153.148,-516.862,0,0
301563.775,158.541,-515.548,0,0
302865.4,165.149,-516.353,0,0
304167.025,170.599,-519.52,0,0
305468.65,174.004,-523.972,0,0
306770.275,177.34,-528.656,0,0
308071.9,179.002,-535.411,0,0
309373.525,177.986,-542.626,0,0
310675.15,175.454,-549.093,0,0
311976.775,170.914,-555.675,0,0
313278.4,164.126,-560.501,0,0
314580,156.826,-563.282,0,0
315882,149.793,-565.148,0,0
317183,141.778,-566.251,0,0
318485,133.455,-565.359,0,0
319787,125.882,-563.216,0,0
321088,118.552,-559.884,0,0
322390,112.005,-555.247,0,0
323691,106.86,-549.497,0,0
324993,103.725,-543.629,0,0
326295,101.884,-538.713,0,0
327596,100.804,-534.79,0,0
328898,99.6397,-532.037,0,0
330200,98.2033,-529.927,0,0
331501.125,96.0981,-528.47,0,0
332802.75,93.1624,-527.063,0,0
334104.375,89.5463,-524.982,0,0
335406.0,85.68,-522.464,0,0
336707.625,81.9409,-519.145,0,0
338009.25,78.4728,-515.473,0,0
339310.875,75.322,-511.386,0,0
340612.5,72.4909,-507.042,0,0
341914.125,70.2915,-502.739,0,0
343215.75,68.3487,-498.706,0,0
344517.375,66.1804,-494.76,0,0
345819.0,63.9593,-490.413,0,0
347121,62.1892,-485.932,0,0
348422,60.7011,-481.246,0,0
349724,59.6355,-476.547,0,0
351025,59.0318,-471.973,0,0
352327,58.5605,-467.826,0,0
353629,57.9763,-463.747,0,0
354930,57.5668,-459.589,0,0
356232,57.4863,-455.318,0,0
357534,57.6863,-451.452,0,0
358835,57.7941,-447.758,0,0
360137,57.9465,-444.064,0,0
361438,58.3226,-440.516,0,0
362740.1,58.5765,-437.198,0,0
364041.725,58.7909,-433.739,0,0
365343.35,59.059,-430.208,0,0
366644.975,59.4244,-426.654,0,0
367946.6,59.6929,-422.88,0,0
369248.225,60.5439,-418.323,0,0
370549.85,62.7101,-413.795,0,0
371851.475,65.8139,-410.316,0,0
373153.1,69.1762,-407.892,0,0
374454.725,72.4522,-406.603,0,0
375756.35,74.9513,-406.13,0,0
377057.975,76.8848,-405.658,0,0
378359.6,78.7517,-405.414,0,0
379661,80.281,-405.473,0,0
380963,81.8268,-405.629,0,0
382264,83.4001,-406.916,0,0
383566,83.5023,-409.164,0,0
384868,81.8923,-411.067,0,0
386169,79.4445,-411.964,0,0
387471,76.3189,-411.823,0,0
388773,73.5091,-410.223,0,0
390074,71.6418,-408.126,0,0
391376,70.431,-406.447,0,0
392677,68.8606,-405.255,0,0
393979,66.5227,-403.799,0,0
395280.7,64.0093,-401.481,0,0
396582.325,61.8573,-398.449,0,0
397883.95,60.223,-395.067,0,0
399185.575,59.0183,-391.491,0,0
400006.6,58.4817,-389.215,0,0