File: Accelerated corrosion test data/2025-10-04_18-00-03/sample_2.csv
Frequency (Hz),Impedance (ohms),Phase (Radians),Temperature (C),Humidity (%)
10000.0,227.165,-11389.7,0,0
11301.625,202.207,-10087.7,0,0
12603.25,182.131,-9056.18,0,0
13904.875,183.614,-8210.56,0,0
15206.5,166.176,-7521.08,0,0
16508.125,142.311,-6933.35,0,0
17809.75,131.776,-6427.37,0,0
19111.375,128.049,-5988.83,0,0
20413.0,117.474,-5607.1,0,0
21714.625,128.116,-5277.33,0,0
23016.25,110.903,-4984.1,0,0
24317.875,102.28,-4719.74,0,0
25619.5,96.8109,-4476.64,0,0
26921.1,94.3582,-4259.57,0,0
28222.7,89.5538,-4060.04,0,0
29524.4,92.5739,-3876.66,0,0
30826,87.5505,-3723.55,0,0
32127.6,81.6262,-3570.4,0,0
33429.2,79.5198,-3432.14,0,0
34730.9,75.2697,-3301.75,0,0
36032.5,72.6887,-3180.79,0,0
37334.1,70.545,-3067.94,0,0
38635.7,68.4309,-2963.2,0,0
39937.4,66.7466,-2864.62,0,0
41239,65.2475,-2772.1,0,0
42540.6,64.0827,-2685.84,0,0
43842.225,62.8176,-2604.02,0,0
45143.85,61.4394,-2526.77,0,0
46445.475,60.9597,-2454.61,0,0
47747.1,60.2943,-2385.46,0,0
49048.725,60.0712,-2321.65,0,0
50350.35,57.7561,-2259.94,0,0
51651.975,56.2908,-2200.99,0,0
52953.6,54.8775,-2143.94,0,0
54255.225,54.0245,-2089.41,0,0
55556.85,53.5852,-2037.49,0,0
56858.475,53.5334,-1987.91,0,0
58160.1,53.8532,-1940.88,0,0
59461.7,54.2055,-1895.16,0,0
60763.3,55.9872,-1852.87,0,0
62065,58.6666,-1814.34,0,0
63366.6,55.7533,-1778.14,0,0
64668.2,52.6112,-1739.88,0,0
65969.8,50.4262,-1701.2,0,0
67271.5,51.0533,-1663.64,0,0
68573.1,53.3298,-1630.1,0,0
69874.7,55.5328,-1599.37,0,0
71176.3,52.4305,-1571.47,0,0
72478,47.4892,-1541.18,0,0
73779.6,44.9289,-1508.5,0,0
75081.2,44.9707,-1476.39,0,0
76382.825,46.7102,-1446.08,0,0
77684.45,49.3957,-1418.01,0,0
78986.075,52.7552,-1393.57,0,0
80287.7,51.6886,-1372.27,0,0
81589.325,49.0266,-1347.35,0,0
82890.95,47.7826,-1321.85,0,0
84192.575,48.5787,-1297.07,0,0
85494.2,49.2191,-1273.76,0,0
86795.825,50.0642,-1251.76,0,0
88097.45,50.7536,-1230.61,0,0
89399.075,50.8276,-1209.06,0,0
90700.7,51.2017,-1188.94,0,0
92002.3,52.7216,-1167.76,0,0
93303.9,55.5762,-1149.12,0,0
94605.6,54.7055,-1132.91,0,0
95907.2,54.247,-1113.4,0,0
97208.8,57.1858,-1096.48,0,0
98510.4,57.3851,-1082.65,0,0
99812.1,53.1149,-1068.39,0,0
101114,50.1194,-1049.85,0,0
102415,46.951,-1030.04,0,0
103717,46.0026,-1009.52,0,0
105019,49.4406,-989.043,0,0
106320.175,54.1924,-972.282,0,0
107621.8,57.4493,-960.07,0,0
108923.425,56.231,-948.381,0,0
110225.05,52.8787,-933.123,0,0
111526.675,51.7947,-915.556,0,0
112828.3,52.0853,-898.35,0,0
114129.925,53.6068,-881.153,0,0
115431.55,56.2317,-864.942,0,0
116733.175,59.4288,-849.416,0,0
118034.8,63.2842,-835.417,0,0
119336.425,67.1701,-822.891,0,0
120638.05,69.842,-812.653,0,0
121939.675,69.2795,-801.622,0,0
123241,68.7361,-788.895,0,0
124543,68.4526,-775.765,0,0
125845,68.1347,-761.429,0,0
127146,69.075,-746.267,0,0
128448,71.8146,-731.492,0,0
129749,74.8884,-718.145,0,0
131051,77.6517,-705.552,0,0
132353,79.4257,-693.556,0,0
133654,80.5251,-680.399,0,0
134956,81.9015,-666.559,0,0
136258,83.8017,-652.197,0,0
137559,86.5757,-637.258,0,0
138860.775,89.1197,-622.695,0,0
140162.4,91.753,-606.391,0,0
141464.025,96.8214,-587.729,0,0
142765.65,105.656,-569.785,0,0
144067.275,115.767,-554.471,0,0
145368.9,126.3,-539.076,0,0
146670.525,138.214,-524.168,0,0
147972.15,153.346,-508.572,0,0
149273.775,173.716,-494.004,0,0
150575.4,201.283,-488.902,0,0
151877.025,225.601,-497.247,0,0
153178.65,237.377,-512.993,0,0
154480,237.873,-524.153,0,0
155782,234.926,-529.028,0,0
157084,231.097,-530.032,0,0
158385,227.085,-526.898,0,0
159687,224.038,-520.789,0,0
160988,226.164,-513.163,0,0
162290,234.306,-509.458,0,0
163592,231.859,-518.195,0,0
164893,217.972,-517.77,0,0
166195,202.586,-505.719,0,0
167497,194.653,-486.442,0,0
168798,190.32,-464.473,0,0
170100,191.842,-443.1,0,0
171401.375,195.258,-420.384,0,0
172703.0,203.364,-396.308,0,0
174004.625,215.371,-372.671,0,0
175306.25,233.551,-348.87,0,0
176607.875,256.535,-330.118,0,0
177909.5,285.621,-318.402,0,0
179211.125,306.093,-317.822,0,0
180512.75,316.944,-318.42,0,0
181814.375,320.95,-303.626,0,0
183116.0,335.672,-280.665,0,0
184417.625,360.57,-256.482,0,0
185719.25,396.173,-236.8,0,0
187021,435.279,-227.43,0,0
188322,477.177,-220.238,0,0
189624,516.704,-218.209,0,0
190926,560.352,-214.35,0,0
192227,619.725,-214.641,0,0
193529,688.908,-234.485,0,0
194831,749.953,-277.617,0,0
196132,802.677,-334.309,0,0
197434,842.991,-398.756,0,0
198735,870.927,-472.97,0,0
200037,878.542,-554.807,0,0
201339,873.983,-637.676,0,0
202640.35,842.466,-719.32,0,0
203941.975,790.295,-776.513,0,0
205243.6,742.465,-816.855,0,0
206545.225,687.069,-848.537,0,0
207846.85,637.921,-861.886,0,0
209148.475,599.448,-870.297,0,0
210450.1,560.373,-884.025,0,0
211751.725,513.934,-888.384,0,0
213053.35,473.942,-879.375,0,0
214354.975,441.378,-865.65,0,0
215656.6,416.575,-851.659,0,0
216958.225,396.132,-836.21,0,0
218259.85,381.355,-820.693,0,0
219561,371.191,-807.157,0,0
220863,363.434,-796.667,0,0
222165,358.225,-785.823,0,0
223466,357.371,-779.897,0,0
224768,354.589,-778.099,0,0
226070,350.855,-776.836,0,0
227371,348.921,-777.444,0,0
228673,346.849,-782.183,0,0
229974,339.943,-791.703,0,0
231276,326.931,-799.978,0,0
232578,310.685,-804.756,0,0
233879,293.495,-806.016,0,0
235180.95,276.965,-805.366,0,0
236482.575,259.388,-802.695,0,0
237784.2,242.016,-797.589,0,0
239085.825,226.246,-789.222,0,0
240387.45,212.468,-779.758,0,0
241689.075,201.039,-769.332,0,0
242990.7,191.871,-759.348,0,0
244292.325,184.104,-751.134,0,0
245593.95,175.752,-744.38,0,0
246895.575,164.576,-739.106,0,0
248197.2,150.839,-729.016,0,0
249498.825,139.095,-715.605,0,0
250800,129.814,-699.787,0,0
252102,124.065,-683.068,0,0
253404,121.24,-666.536,0,0
254705,120.294,-651.124,0,0
256007,121.235,-635.619,0,0
257309,125.122,-621.178,0,0
258610,130.81,-609.043,0,0
259912,137.451,-598.318,0,0
261213,145.945,-589.796,0,0
262515,154.854,-584.658,0,0
263817,163.181,-581.648,0,0
265118,170.455,-582.176,0,0
266420,173.901,-583.584,0,0
267721.55,176.51,-583.826,0,0
269023.175,177.106,-584.731,0,0
270324.8,175.984,-582.214,0,0
271626.425,178.18,-576.691,0,0
272928.05,184.205,-572.394,0,0
274229.675,194.819,-570.122,0,0
275531.3,208.435,-576.695,0,0
276832.925,215.834,-593.202,0,0
278134.55,211.065,-610.522,0,0
279436.175,200.413,-621.735,0,0
280737.8,188.472,-628.376,0,0
282039.425,175.419,-632.63,0,0
283341,159.969,-632.778,0,0
284643,147.883,-627.296,0,0
285944,135.956,-623.268,0,0
287246,122.239,-613.447,0,0
288548,113.502,-596.509,0,0
289849,115.091,-576.823,0,0
291151,127.304,-564.145,0,0
292452,141.246,-563.221,0,0
293754,147.854,-571.449,0,0
295056,144.701,-575.38,0,0
296357,148.82,-575.857,0,0
297659,147.991,-587.143,0,0
298960.525,138.218,-592.638,0,0
300262.15,129.028,-593.522,0,0
301563.775,120.536,-590.955,0,0
302865.4,115.949,-587.365,0,0
304167.025,111.934,-587.283,0,0
305468.65,104.633,-587.582,0,0
306770.275,95.5839,-584.912,0,0
308071.9,87.8662,-579.593,0,0
309373.525,81.5424,-573.788,0,0
310675.15,76.0988,-567.405,0,0
311976.775,71.6299,-560.543,0,0
313278.4,68.4102,-553.914,0,0
314580,65.5333,-547.651,0,0
315882,62.9956,-541.467,0,0
317183,61.0247,-535.081,0,0
318485,59.7734,-528.856,0,0
319787,58.7869,-523.343,0,0
321088,57.7458,-517.902,0,0
322390,56.8687,-512.474,0,0
323691,55.8913,-506.763,0,0
324993,55.7871,-500.147,0,0
326295,57.8615,-493.759,0,0
327596,60.9862,-489.817,0,0
328898,63.0943,-487.397,0,0
330200,64.7398,-485.528,0,0
331501.125,65.6184,-484.714,0,0
332802.75,64.9773,-484.355,0,0
334104.375,62.8013,-483.121,0,0
335406.0,60.3897,-480.489,0,0
336707.625,58.3646,-477.163,0,0
338009.25,56.5622,-473.426,0,0
339310.875,55.3222,-469.29,0,0
340612.5,54.4276,-465.03,0,0
341914.125,53.9062,-460.762,0,0
343215.75,53.7684,-456.384,0,0
344517.375,54.0319,-452.025,0,0
345819.0,54.805,-447.796,0,0
347121,56.0187,-443.948,0,0
348422,57.3869,-440.507,0,0
349724,59.0395,-437.329,0,0
351025,60.8729,-434.873,0,0
352327,62.2447,-432.919,0,0
353629,63.3385,-430.84,0,0
354930,64.5439,-428.827,0,0
356232,65.8437,-427.036,0,0
357534,67.2798,-425.346,0,0
358835,69.0178,-424.172,0,0
360137,70.5959,-423.985,0,0
361438,71.1398,-424.202,0,0
362740.1,71.0658,-424.225,0,0
364041.725,70.5629,-424.211,0,0
365343.35,69.5516,-423.824,0,0
366644.975,68.2966,-422.795,0,0
367946.6,67.6338,-421.21,0,0
369248.225,67.6515,-420.129,0,0
370549.85,67.1152,-419.936,0,0
371851.475,65.7521,-419.223,0,0
373153.1,64.4992,-418.207,0,0
374454.725,63.3122,-417.212,0,0
375756.35,61.7332,-416.173,0,0
377057.975,60.1731,-414.798,0,0
378359.6,58.6881,-413.79,0,0
379661,55.8448,-412.586,0,0
380963,53.3066,-408.97,0,0
382264,53.1127,-406.109,0,0
383566,52.0849,-404.654,0,0
384868,50.1457,-402.709,0,0
386169,48.2068,-400.038,0,0
387471,46.524,-396.872,0,0
388773,45.4137,-393.278,0,0
390074,45.1478,-389.731,0,0
391376,45.4074,-387.071,0,0
392677,44.9036,-385.361,0,0
393979,43.2377,-383.036,0,0
395280.7,41.6921,-379.501,0,0
396582.325,40.9677,-375.476,0,0
397883.95,40.9608,-371.494,0,0
399185.575,41.4392,-367.848,0,0
400006.6,41.883,-365.674,0,0