File: Accelerated corrosion test data/2025-10-22_09-25-28/sample_6.csv
Frequency (Hz),Impedance (ohms),Phase (Radians),Temperature (C),Humidity (%)
10000.0,4112.67,-6731.67,0,0
11301.625,3487.26,-6313.06,0,0
12603.25,2992.31,-5918.93,0,0
13904.875,2595.46,-5563.95,0,0
15206.5,2271.69,-5235.72,0,0
16508.125,2005.32,-4937.23,0,0
17809.75,1784.01,-4666.39,0,0
19111.375,1599.29,-4420.03,0,0
20413.0,1442.12,-4196.1,0,0
21714.625,1306.68,-3990.85,0,0
23016.25,1191.71,-3800.25,0,0
24317.875,1093.64,-3631.71,0,0
25619.5,1006.71,-3474.38,0,0
26921.1,930.449,-3328.06,0,0
28222.7,862.806,-3196.27,0,0
29524.4,800.281,-3067.52,0,0
30826,753.031,-2953.07,0,0
32127.6,702.951,-2845.77,0,0
33429.2,663.387,-2746.92,0,0
34730.9,620.237,-2653.76,0,0
36032.5,582.825,-2565.03,0,0
37334.1,550.619,-2478.34,0,0
38635.7,522.588,-2397.11,0,0
39937.4,501.091,-2321.74,0,0
41239,479.45,-2255.74,0,0
42540.6,455.336,-2192.43,0,0
43842.225,435.139,-2125.36,0,0
45143.85,421.178,-2066.09,0,0
46445.475,408.573,-2012.88,0,0
47747.1,394.598,-1962.86,0,0
49048.725,381.894,-1918.47,0,0
50350.35,362.987,-1877.83,0,0
51651.975,342.764,-1830.92,0,0
52953.6,328.934,-1784.19,0,0
54255.225,315.234,-1740.64,0,0
55556.85,305.813,-1699.04,0,0
56858.475,296.222,-1657.23,0,0
58160.1,291.932,-1622.58,0,0
59461.7,281.554,-1592.33,0,0
60763.3,268.714,-1559.98,0,0
62065,255.329,-1524.11,0,0
63366.6,251.834,-1486.88,0,0
64668.2,245.536,-1460.42,0,0
65969.8,238.297,-1429.44,0,0
67271.5,232.233,-1402.63,0,0
68573.1,224.87,-1375.73,0,0
69874.7,218.078,-1349.51,0,0
71176.3,210.555,-1323.71,0,0
72478,203.967,-1297.57,0,0
73779.6,198.06,-1272.5,0,0
75081.2,192.554,-1248.35,0,0
76382.825,186.62,-1224.6,0,0
77684.45,181.025,-1200.87,0,0
78986.075,175.963,-1177.34,0,0
80287.7,171.26,-1153.92,0,0
81589.325,167.669,-1130.51,0,0
82890.95,164.863,-1108.07,0,0
84192.575,162.517,-1085.75,0,0
85494.2,161.873,-1063.83,0,0
86795.825,161.918,-1044.03,0,0
88097.45,162.023,-1025.13,0,0
89399.075,163.545,-1007.07,0,0
90700.7,164.318,-993.151,0,0
92002.3,161.26,-977.462,0,0
93303.9,159.582,-962.053,0,0
94605.6,158.875,-945.754,0,0
95907.2,158.955,-930.726,0,0
97208.8,157.884,-918.243,0,0
98510.4,155.409,-903.848,0,0
99812.1,155.052,-889.83,0,0
101114,154.278,-878.265,0,0
102415,151.311,-866.674,0,0
103717,147.562,-855.451,0,0
105019,141.615,-844.022,0,0
106320.175,132.891,-827.972,0,0
107621.8,129.401,-806.447,0,0
108923.425,131.167,-786.854,0,0
110225.05,134.73,-769.931,0,0
111526.675,141.154,-755.345,0,0
112828.3,146.972,-747.768,0,0
114129.925,146.617,-740.389,0,0
115431.55,145.606,-730.908,0,0
116733.175,144.665,-724.823,0,0
118034.8,136.671,-715.126,0,0
119336.425,131.877,-699.124,0,0
120638.05,132.062,-682.718,0,0
121939.675,134.653,-671.155,0,0
123241,133.396,-659.813,0,0
124543,132.875,-647.401,0,0
125845,132.13,-634.937,0,0
127146,131.618,-621.438,0,0
128448,132.693,-606.966,0,0
129749,135.513,-593.682,0,0
131051,138.352,-581.374,0,0
132353,141.55,-569.266,0,0
133654,145.372,-558.014,0,0
134956,149.077,-547.341,0,0
136258,153.322,-537.42,0,0
137559,157.316,-529.191,0,0
138860.775,159.892,-521.472,0,0
140162.4,161.065,-513.445,0,0
141464.025,162.499,-504.491,0,0
142765.65,162.558,-496.05,0,0
144067.275,162.96,-484.685,0,0
145368.9,165.692,-474.44,0,0
146670.525,166.966,-465.473,0,0
147972.15,166.425,-455.381,0,0
149273.775,166.349,-442.456,0,0
150575.4,168.418,-428.549,0,0
151877.025,171.924,-414.209,0,0
153178.65,178.594,-400.9,0,0
154480,183.55,-390.346,0,0
155782,188.551,-377.256,0,0
157084,196.434,-366.171,0,0
158385,201.871,-357.483,0,0
159687,206.149,-346.723,0,0
160988,210.596,-335.278,0,0
162290,215.577,-322.713,0,0
163592,221.621,-310.104,0,0
164893,227.06,-298.026,0,0
166195,231.543,-283.647,0,0
167497,237.66,-266.881,0,0
168798,246.466,-249.255,0,0
170100,256.433,-231.99,0,0
171401.375,267.23,-214.137,0,0
172703.0,278.791,-194.48,0,0
174004.625,292.447,-172.686,0,0
175306.25,309.705,-148.897,0,0
176607.875,331.062,-124.014,0,0
177909.5,357.362,-98.6081,0,0
179211.125,389.214,-73.6495,0,0
180512.75,426.867,-51.4813,0,0
181814.375,467.775,-31.2819,0,0
183116.0,513.261,-12.0666,0,0
184417.625,565.994,7.19763,0,0
185719.25,629.077,24.538,0,0
187021,706.574,35.9473,0,0
188322,800.047,33.7763,0,0
189624,907.45,7.22424,0,0
190926,1016.59,-52.4014,0,0
192227,1114.53,-145.145,0,0
193529,1188.72,-266.705,0,0
194831,1229.49,-407.286,0,0
196132,1231.86,-554.617,0,0
197434,1195.6,-693.079,0,0
198735,1129.88,-810.22,0,0
200037,1046.39,-901.539,0,0
201339,954.365,-967.911,0,0
202640.35,860.225,-1009.37,0,0
203941.975,771.697,-1029.41,0,0
205243.6,692.882,-1035.45,0,0
206545.225,622.564,-1031.26,0,0
207846.85,561.725,-1020.5,0,0
209148.475,508.408,-1005.28,0,0
210450.1,462.56,-988.026,0,0
211751.725,420.939,-969.491,0,0
213053.35,384.396,-948.021,0,0
214354.975,352.822,-925.899,0,0
215656.6,325.599,-902.887,0,0
216958.225,302.556,-880.321,0,0
218259.85,282.709,-858.326,0,0
219561,265.196,-836.768,0,0
220863,250.249,-815.435,0,0
222165,237.352,-794.393,0,0
223466,226.753,-773.259,0,0
224768,218.64,-752.39,0,0
226070,213.708,-732.241,0,0
227371,210.618,-714.482,0,0
228673,207.81,-698.083,0,0
229974,205.743,-681.78,0,0
231276,205.114,-665.499,0,0
232578,206.159,-649.555,0,0
233879,209.157,-634.22,0,0
235180.95,214.32,-619.931,0,0
236482.575,221.456,-606.966,0,0
237784.2,230.58,-595.92,0,0
239085.825,241.576,-587.195,0,0
240387.45,254.073,-581.579,0,0
241689.075,267.235,-579.545,0,0
242990.7,280.285,-581.073,0,0
244292.325,292.728,-586.836,0,0
245593.95,302.057,-597.184,0,0
246895.575,306.424,-609.204,0,0
248197.2,307.484,-620.717,0,0
249498.825,306.263,-631.101,0,0
250800,305.581,-641.223,0,0
252102,302.773,-654.939,0,0
253404,295.228,-669.158,0,0
254705,282.812,-682.084,0,0
256007,266.566,-691.039,0,0
257309,249.281,-695.437,0,0
258610,232.462,-696.368,0,0
259912,216.86,-694.532,0,0
261213,202.437,-690.818,0,0
262515,189.569,-685.558,0,0
263817,178.128,-679.562,0,0
265118,167.895,-673.079,0,0
266420,158.889,-666.14,0,0
267721.55,150.864,-659.268,0,0
269023.175,143.441,-652.256,0,0
270324.8,136.837,-645.372,0,0
271626.425,130.698,-638.325,0,0
272928.05,125.049,-631.524,0,0
274229.675,119.924,-624.637,0,0
275531.3,115.192,-617.808,0,0
276832.925,110.856,-611.018,0,0
278134.55,106.907,-604.181,0,0
279436.175,103.463,-597.164,0,0
280737.8,100.986,-590.18,0,0
282039.425,99.176,-584.297,0,0
283341,96.948,-578.864,0,0
284643,94.8002,-573.131,0,0
285944,93.3252,-567.829,0,0
287246,91.9107,-563.357,0,0
288548,89.808,-559.098,0,0
289849,87.5444,-554.703,0,0
291151,85.5753,-549.975,0,0
292452,83.8449,-545.65,0,0
293754,81.7921,-541.504,0,0
295056,79.5244,-537.244,0,0
296357,77.3771,-532.438,0,0
297659,75.7255,-527.365,0,0
298960.525,74.7668,-522.624,0,0
300262.15,73.7848,-518.713,0,0
301563.775,72.3554,-514.797,0,0
302865.4,70.9136,-510.71,0,0
304167.025,69.6528,-506.473,0,0
305468.65,68.7112,-502.478,0,0
306770.275,67.7026,-498.679,0,0
308071.9,66.5683,-494.997,0,0
309373.525,65.4613,-491.195,0,0
310675.15,64.4725,-487.483,0,0
311976.775,63.4876,-483.892,0,0
313278.4,62.5027,-480.331,0,0
314580,61.5297,-476.68,0,0
315882,60.6283,-473.136,0,0
317183,59.7423,-469.592,0,0
318485,58.8846,-466.092,0,0
319787,58.0228,-462.516,0,0
321088,57.3374,-459.078,0,0
322390,56.7231,-455.694,0,0
323691,56.0382,-452.42,0,0
324993,55.3902,-449.163,0,0
326295,54.6783,-445.912,0,0
327596,53.9535,-442.573,0,0
328898,53.4103,-439.25,0,0
330200,52.8421,-435.97,0,0
331501.125,52.4176,-432.701,0,0
332802.75,52.0244,-429.524,0,0
334104.375,51.6157,-426.397,0,0
335406.0,51.2706,-423.312,0,0
336707.625,50.9327,-420.237,0,0
338009.25,50.584,-417.246,0,0
339310.875,50.2639,-414.204,0,0
340612.5,49.9601,-411.154,0,0
341914.125,49.8085,-408.09,0,0
343215.75,49.7551,-405.101,0,0
344517.375,49.6812,-402.289,0,0
345819.0,49.4877,-399.45,0,0
347121,49.4375,-396.553,0,0
348422,49.4657,-393.714,0,0
349724,49.6257,-391,0,0
351025,49.8049,-388.372,0,0
352327,49.9909,-385.91,0,0
353629,50.0996,-383.5,0,0
354930,50.1754,-381.237,0,0
356232,50.1255,-379.042,0,0
357534,49.942,-376.765,0,0
358835,49.767,-374.42,0,0
360137,49.6016,-372.131,0,0
361438,49.3985,-369.751,0,0
362740.1,49.2376,-367.38,0,0
364041.725,49.0796,-364.877,0,0
365343.35,49.0149,-362.466,0,0
366644.975,48.9926,-360.048,0,0
367946.6,48.9726,-357.717,0,0
369248.225,48.9751,-355.354,0,0
370549.85,48.9242,-353.03,0,0
371851.475,48.9934,-350.7,0,0
373153.1,49.1633,-348.51,0,0
374454.725,49.1797,-346.503,0,0
375756.35,48.9498,-344.518,0,0
377057.975,48.5786,-342.298,0,0
378359.6,48.3112,-339.956,0,0
379661,48.0597,-337.52,0,0
380963,47.8936,-335.015,0,0
382264,47.8388,-332.353,0,0
383566,48.0943,-329.915,0,0
384868,48.1262,-327.687,0,0
386169,47.9892,-325.321,0,0
387471,47.9593,-322.868,0,0
388773,47.9472,-320.405,0,0
390074,47.9681,-317.882,0,0
391376,48.0443,-315.315,0,0
392677,48.1438,-312.772,0,0
393979,48.2478,-310.186,0,0
395280.7,48.4202,-307.573,0,0
396582.325,48.5933,-304.936,0,0
397883.95,48.8292,-302.268,0,0
399185.575,49.1177,-299.575,0,0
400006.6,49.3194,-297.831,0,0