File: Accelerated corrosion test data/2025-10-22_09-25-28/sample_4.csv
Frequency (Hz),Impedance (ohms),Phase (Radians),Temperature (C),Humidity (%)
10000.0,262.905,-11936.5,0,0
11301.625,233.788,-10574.5,0,0
12603.25,213.634,-9486.63,0,0
13904.875,192.984,-8600.83,0,0
15206.5,180.306,-7871.46,0,0
16508.125,189.677,-7259.88,0,0
17809.75,154.739,-6744.92,0,0
19111.375,144.628,-6285.69,0,0
20413.0,140.063,-5882.43,0,0
21714.625,147.941,-5537.24,0,0
23016.25,124.559,-5234.78,0,0
24317.875,115.337,-4948.95,0,0
25619.5,111.47,-4693.95,0,0
26921.1,106.305,-4463.04,0,0
28222.7,120.299,-4259.67,0,0
29524.4,112.836,-4080.58,0,0
30826,97.8675,-3906.51,0,0
32127.6,99.8107,-3744.76,0,0
33429.2,89.4327,-3603.94,0,0
34730.9,84.3374,-3464.25,0,0
36032.5,81.3111,-3336.4,0,0
37334.1,78.7467,-3216.72,0,0
38635.7,76.3834,-3104.46,0,0
39937.4,76.8522,-2997.58,0,0
41239,79.6701,-2903.73,0,0
42540.6,78.2507,-2814.7,0,0
43842.225,72.8266,-2730.83,0,0
45143.85,70.9856,-2649.56,0,0
46445.475,70.1753,-2571.87,0,0
47747.1,69.7233,-2501.46,0,0
49048.725,65.8298,-2432.12,0,0
50350.35,63.8848,-2364.51,0,0
51651.975,63.2459,-2299.5,0,0
52953.6,64.6624,-2236.19,0,0
54255.225,72.9024,-2179.39,0,0
55556.85,71.4374,-2135.95,0,0
56858.475,65.0115,-2081.85,0,0
58160.1,66.1334,-2029.42,0,0
59461.7,70.2284,-1978.49,0,0
60763.3,79.9436,-1939.97,0,0
62065,69.5713,-1907.31,0,0
63366.6,63.1346,-1861.37,0,0
64668.2,63.6084,-1817.67,0,0
65969.8,65.8078,-1776.38,0,0
67271.5,69.7319,-1739.87,0,0
68573.1,73.3739,-1710.76,0,0
69874.7,66.1277,-1681.01,0,0
71176.3,64.3704,-1646.77,0,0
72478,58.7266,-1614.71,0,0
73779.6,57.2362,-1578.75,0,0
75081.2,59.2235,-1545.26,0,0
76382.825,61.681,-1516.03,0,0
77684.45,64.8825,-1488.31,0,0
78986.075,63.7548,-1465.77,0,0
80287.7,60.8768,-1438.9,0,0
81589.325,60.4609,-1412.94,0,0
82890.95,59.1526,-1388.01,0,0
84192.575,57.8483,-1363.14,0,0
85494.2,56.8217,-1338.77,0,0
86795.825,55.8816,-1315.08,0,0
88097.45,54.4599,-1292.12,0,0
89399.075,53.1743,-1267.84,0,0
90700.7,53.0777,-1244.65,0,0
92002.3,53.4793,-1221.39,0,0
93303.9,54.7903,-1200.38,0,0
94605.6,53.3496,-1180.45,0,0
95907.2,52.556,-1157.89,0,0
97208.8,53.1638,-1136.15,0,0
98510.4,54.4242,-1114.55,0,0
99812.1,56.713,-1093.58,0,0
101114,60.6106,-1075.01,0,0
102415,59.7882,-1060.05,0,0
103717,57.3216,-1037.3,0,0
105019,60.6565,-1013.61,0,0
106320.175,66.9391,-992.776,0,0
107621.8,73.5915,-974.597,0,0
108923.425,81.8738,-957.31,0,0
110225.05,90.4306,-944.057,0,0
111526.675,96.88,-932.979,0,0
112828.3,102.487,-922.705,0,0
114129.925,106.445,-913.892,0,0
115431.55,108.817,-905.73,0,0
116733.175,109.046,-897.413,0,0
118034.8,107.506,-887.144,0,0
119336.425,108.822,-873.984,0,0
120638.05,113.851,-869.136,0,0
121939.675,106.546,-863.263,0,0
123241,101.591,-850.968,0,0
124543,98.5951,-837.886,0,0
125845,97.4633,-826.07,0,0
127146,94.5845,-815.826,0,0
128448,89.1972,-805.894,0,0
129749,81.4177,-791.307,0,0
131051,75.8418,-773.557,0,0
132353,72.7229,-754.691,0,0
133654,71.4341,-735.71,0,0
134956,71.7149,-716.738,0,0
136258,73.3696,-698.183,0,0
137559,75.2903,-680.56,0,0
138860.775,77.1962,-661.956,0,0
140162.4,80.6349,-642.85,0,0
141464.025,85.7188,-623.714,0,0
142765.65,91.6072,-605.532,0,0
144067.275,98.0651,-587.384,0,0
145368.9,105.348,-568.914,0,0
146670.525,114.204,-550.286,0,0
147972.15,124.419,-531.917,0,0
149273.775,136.09,-513.829,0,0
150575.4,150.336,-494.932,0,0
151877.025,168.383,-477.294,0,0
153178.65,190.982,-464.043,0,0
154480,213.093,-458.282,0,0
155782,230.889,-454.381,0,0
157084,246.885,-451.262,0,0
158385,261.88,-447.19,0,0
159687,282.082,-446.017,0,0
160988,296.662,-450.689,0,0
162290,306.872,-455.391,0,0
163592,311.102,-457.253,0,0
164893,317.152,-449.462,0,0
166195,332.581,-438.054,0,0
167497,360.961,-436.114,0,0
168798,389.625,-447.408,0,0
170100,413.579,-476.151,0,0
171401.375,414.35,-516.029,0,0
172703.0,392.251,-548.08,0,0
174004.625,358.47,-558.526,0,0
175306.25,327.43,-551.139,0,0
176607.875,306.153,-530.466,0,0
177909.5,296.4,-506.761,0,0
179211.125,294.752,-483.392,0,0
180512.75,298.458,-464.168,0,0
181814.375,302.625,-447.957,0,0
183116.0,305.059,-431.792,0,0
184417.625,308.455,-411.606,0,0
185719.25,315.466,-390.088,0,0
187021,324.056,-365.921,0,0
188322,337.788,-338.663,0,0
189624,357.291,-309.544,0,0
190926,385.285,-279.282,0,0
192227,423.036,-250.175,0,0
193529,470.722,-227.162,0,0
194831,525.335,-211.538,0,0
196132,587.375,-202.034,0,0
197434,660.613,-202.343,0,0
198735,745.237,-218.937,0,0
200037,837.201,-268.455,0,0
201339,912.129,-351.923,0,0
202640.35,955.937,-453.515,0,0
203941.975,969.267,-562.829,0,0
205243.6,954.852,-663.403,0,0
206545.225,920.873,-755.087,0,0
207846.85,862.523,-834.463,0,0
209148.475,788.578,-887.007,0,0
210450.1,717.616,-910.273,0,0
211751.725,658.068,-916.914,0,0
213053.35,607.719,-914.837,0,0
214354.975,572.694,-903.579,0,0
215656.6,549.381,-901.84,0,0
216958.225,522.56,-902.266,0,0
218259.85,498.834,-902.107,0,0
219561,474.967,-903.83,0,0
220863,448.473,-902.567,0,0
222165,425.114,-898.265,0,0
223466,405.739,-892.626,0,0
224768,387.19,-891.527,0,0
226070,365.554,-891.311,0,0
227371,340.281,-888.726,0,0
228673,313.671,-879.931,0,0
229974,290.588,-866.146,0,0
231276,270.895,-850.343,0,0
232578,255.398,-833.652,0,0
233879,242.373,-816.427,0,0
235180.95,233.041,-800.231,0,0
236482.575,224.204,-784.8,0,0
237784.2,218.186,-768.639,0,0
239085.825,214.844,-754.254,0,0
240387.45,212.813,-741.858,0,0
241689.075,211.665,-731.827,0,0
242990.7,209.718,-724.092,0,0
244292.325,205.682,-717.248,0,0
245593.95,200.167,-709.137,0,0
246895.575,194.722,-699.239,0,0
248197.2,190.747,-687.866,0,0
249498.825,189.065,-676.574,0,0
250800,188.36,-667.509,0,0
252102,185.602,-658.91,0,0
253404,182.69,-648.415,0,0
254705,179.37,-636.933,0,0
256007,177.57,-621.428,0,0
257309,180.11,-603.556,0,0
258610,188.244,-585.396,0,0
259912,202.69,-570.277,0,0
261213,220.303,-559.744,0,0
262515,241.856,-554.274,0,0
263817,264.032,-559.139,0,0
265118,280.26,-567.937,0,0
266420,296.742,-579.964,0,0
267721.55,309.714,-601.283,0,0
269023.175,309.991,-627.371,0,0
270324.8,299.126,-646.631,0,0
271626.425,288.05,-659.35,0,0
272928.05,274.44,-669.086,0,0
274229.675,262.533,-676.67,0,0
275531.3,245.98,-684.635,0,0
276832.925,224.062,-685.707,0,0
278134.55,204.14,-675.724,0,0
279436.175,195.631,-660.95,0,0
280737.8,192.009,-652.556,0,0
282039.425,188.968,-644.115,0,0
283341,188.993,-638.266,0,0
284643,188.032,-637,0,0
285944,181.665,-636.814,0,0
287246,173.99,-630.522,0,0
288548,167.602,-620.761,0,0
289849,167.585,-607.413,0,0
291151,175.679,-596.91,0,0
292452,187.378,-594.905,0,0
293754,196.669,-600.923,0,0
295056,199.403,-612.615,0,0
296357,192.923,-623.156,0,0
297659,182.901,-627.876,0,0
298960.525,173.465,-629.026,0,0
300262.15,164.312,-628.252,0,0
301563.775,155.944,-625.602,0,0
302865.4,148.389,-622.41,0,0
304167.025,141.015,-617.884,0,0
305468.65,134.86,-612.372,0,0
306770.275,130.023,-605.999,0,0
308071.9,127.24,-600.02,0,0
309373.525,124.961,-595.895,0,0
310675.15,121.565,-591.876,0,0
311976.775,118.525,-587.042,0,0
313278.4,116.393,-582.069,0,0
314580,115.022,-578.085,0,0
315882,113.531,-574.286,0,0
317183,112.358,-571.14,0,0
318485,111.292,-568.694,0,0
319787,109.709,-567.785,0,0
321088,106.117,-567.178,0,0
322390,100.563,-565.874,0,0
323691,93.988,-561.941,0,0
324993,88.7516,-556.091,0,0
326295,84.9614,-549.511,0,0
327596,81.9887,-543.117,0,0
328898,79.4602,-536.077,0,0
330200,78.7297,-528.64,0,0
331501.125,79.87,-522.083,0,0
332802.75,81.4746,-518.137,0,0
334104.375,81.5287,-515.464,0,0
335406.0,79.9524,-512.32,0,0
336707.625,78.1681,-508.117,0,0
338009.25,76.3908,-503.135,0,0
339310.875,75.2657,-496.801,0,0
340612.5,76.0674,-490.033,0,0
341914.125,78.7618,-483.913,0,0
343215.75,82.6751,-479.852,0,0
344517.375,86.4224,-478.041,0,0
345819.0,88.7387,-477.728,0,0
347121,89.4528,-477.935,0,0
348422,88.8201,-477.625,0,0
349724,87.5187,-476.856,0,0
351025,85.4602,-475.327,0,0
352327,83.4436,-472.415,0,0
353629,82.3678,-469.071,0,0
354930,81.6209,-466.098,0,0
356232,80.8883,-462.734,0,0
357534,80.8728,-459.74,0,0
358835,80.3445,-457.274,0,0
360137,79.1601,-454.207,0,0
361438,78.5466,-450.35,0,0
362740.1,78.3803,-446.583,0,0
364041.725,78.6108,-442.756,0,0
365343.35,78.9044,-438.991,0,0
366644.975,79.3154,-434.825,0,0
367946.6,80.5611,-430.011,0,0
369248.225,83.2061,-425.272,0,0
370549.85,87.4262,-421.072,0,0
371851.475,93.4516,-418.954,0,0
373153.1,99.01,-420.301,0,0
374454.725,101.86,-423.509,0,0
375756.35,102.431,-426.264,0,0
377057.975,101.612,-428.112,0,0
378359.6,100.903,-428.567,0,0
379661,100.461,-429.503,0,0
380963,99.0244,-429.945,0,0
382264,98.506,-429.765,0,0
383566,98.2707,-430.529,0,0
384868,97.0966,-433.028,0,0
386169,92.9379,-435.125,0,0
387471,87.427,-434.259,0,0
388773,83.3681,-430.819,0,0
390074,82.1017,-427.256,0,0
391376,81.7132,-425.901,0,0
392677,79.7688,-425.724,0,0
393979,76.29,-424.94,0,0
395280.7,72.1987,-422.755,0,0
396582.325,68.3602,-419.374,0,0
397883.95,65.1542,-415.089,0,0
399185.575,62.6764,-410.067,0,0
400006.6,61.6883,-406.697,0,0