File: Accelerated corrosion test data/2025-10-22_09-25-28/sample_2.csv
Frequency (Hz),Impedance (ohms),Phase (Radians),Temperature (C),Humidity (%)
10000.0,232.952,-11470.8,0,0
11301.625,206.628,-10159.3,0,0
12603.25,185.899,-9120.85,0,0
13904.875,186.461,-8266.08,0,0
15206.5,169.739,-7575.89,0,0
16508.125,144.815,-6982.67,0,0
17809.75,134.369,-6473.11,0,0
19111.375,129.609,-6031.88,0,0
20413.0,119.107,-5646.98,0,0
21714.625,130.067,-5316.45,0,0
23016.25,113.584,-5020.14,0,0
24317.875,103.796,-4753.84,0,0
25619.5,98.3172,-4508.67,0,0
26921.1,95.4735,-4290.05,0,0
28222.7,90.283,-4089.64,0,0
29524.4,93.4732,-3905.1,0,0
30826,88.5718,-3750.92,0,0
32127.6,82.4438,-3596.23,0,0
33429.2,79.976,-3457.26,0,0
34730.9,76.0335,-3325.84,0,0
36032.5,73.2605,-3204.15,0,0
37334.1,71.1702,-3090.13,0,0
38635.7,69.0071,-2984.8,0,0
39937.4,67.2517,-2885.45,0,0
41239,65.7159,-2792.19,0,0
42540.6,64.9292,-2705.31,0,0
43842.225,63.1182,-2623.03,0,0
45143.85,62.0603,-2545.2,0,0
46445.475,61.5121,-2472.32,0,0
47747.1,60.571,-2403,0,0
49048.725,60.7394,-2338.96,0,0
50350.35,57.9316,-2276.53,0,0
51651.975,56.497,-2217.1,0,0
52953.6,55.1104,-2159.42,0,0
54255.225,54.2717,-2104.55,0,0
55556.85,54.0484,-2052.35,0,0
56858.475,53.8722,-2002.41,0,0
58160.1,54.1278,-1954.94,0,0
59461.7,54.4618,-1908.7,0,0
60763.3,56.4855,-1866.21,0,0
62065,58.8896,-1827.69,0,0
63366.6,55.5668,-1790.89,0,0
64668.2,52.6621,-1752.68,0,0
65969.8,50.8133,-1713.17,0,0
67271.5,51.0682,-1675.65,0,0
68573.1,53.8304,-1641.73,0,0
69874.7,55.5002,-1611.15,0,0
71176.3,52.2658,-1583.24,0,0
72478,47.7811,-1552.72,0,0
73779.6,45.2502,-1519.42,0,0
75081.2,45.2357,-1486.98,0,0
76382.825,46.9475,-1456.45,0,0
77684.45,49.7465,-1427.98,0,0
78986.075,52.8776,-1403.9,0,0
80287.7,51.9016,-1382.29,0,0
81589.325,49.0349,-1357.11,0,0
82890.95,48.04,-1331.28,0,0
84192.575,48.6284,-1306.5,0,0
85494.2,49.2538,-1282.99,0,0
86795.825,50.4116,-1260.64,0,0
88097.45,51.026,-1239.38,0,0
89399.075,51.3506,-1217.99,0,0
90700.7,51.2627,-1197.7,0,0
92002.3,53.0176,-1176.22,0,0
93303.9,54.7821,-1157.4,0,0
94605.6,55.3832,-1141.07,0,0
95907.2,54.3868,-1121.24,0,0
97208.8,57.7489,-1103.9,0,0
98510.4,57.2477,-1090.03,0,0
99812.1,53.3944,-1074.91,0,0
101114,50.4804,-1057.66,0,0
102415,46.8754,-1037.66,0,0
103717,46.0341,-1016.41,0,0
105019,49.5479,-996.152,0,0
106320.175,54.0481,-978.718,0,0
107621.8,58.0294,-966.851,0,0
108923.425,56.3244,-955.144,0,0
110225.05,53.0529,-939.884,0,0
111526.675,51.6908,-921.842,0,0
112828.3,52.1491,-904.391,0,0
114129.925,53.7237,-887.155,0,0
115431.55,56.3266,-870.596,0,0
116733.175,59.8576,-855.018,0,0
118034.8,63.7513,-840.559,0,0
119336.425,68.1556,-828.349,0,0
120638.05,70.7412,-818.14,0,0
121939.675,70.434,-807.52,0,0
123241,69.4675,-794.91,0,0
124543,68.8853,-781.546,0,0
125845,68.3624,-766.85,0,0
127146,69.5651,-751.352,0,0
128448,72.2241,-736.799,0,0
129749,75.1371,-723.237,0,0
131051,78.1254,-710.487,0,0
132353,79.548,-698.329,0,0
133654,81.007,-684.799,0,0
134956,82.0874,-671.122,0,0
136258,84.2169,-655.988,0,0
137559,87.243,-640.797,0,0
138860.775,90.4776,-626.047,0,0
140162.4,93.4837,-609.996,0,0
141464.025,99.103,-591.484,0,0
142765.65,108.481,-574.415,0,0
144067.275,117.992,-558.936,0,0
145368.9,128.827,-544.018,0,0
146670.525,140.77,-529.549,0,0
147972.15,154.832,-514.764,0,0
149273.775,174.618,-499.748,0,0
150575.4,202.714,-493.817,0,0
151877.025,226.71,-502.96,0,0
153178.65,237.849,-518.582,0,0
154480,237.522,-529.792,0,0
155782,235.251,-533.22,0,0
157084,230.2,-535.049,0,0
158385,227.138,-530.834,0,0
159687,225.083,-525.555,0,0
160988,225.157,-518.295,0,0
162290,233.023,-515.414,0,0
163592,228.835,-521.402,0,0
164893,215.465,-518.739,0,0
166195,202.979,-505.847,0,0
167497,195.718,-488.152,0,0
168798,191.046,-467.461,0,0
170100,191.668,-444.189,0,0
171401.375,196.19,-421.814,0,0
172703.0,204.057,-398.181,0,0
174004.625,215.828,-374.454,0,0
175306.25,233.776,-351.08,0,0
176607.875,257.393,-331.606,0,0
177909.5,284.767,-320.479,0,0
179211.125,306.758,-317.939,0,0
180512.75,317.844,-319.223,0,0
181814.375,323.685,-302.879,0,0
183116.0,340.122,-284.082,0,0
184417.625,362.554,-260.98,0,0
185719.25,394.801,-242.492,0,0
187021,431.906,-227.674,0,0
188322,473.988,-220.14,0,0
189624,512.393,-218.201,0,0
190926,556.213,-210.453,0,0
192227,615.267,-207.962,0,0
193529,686.181,-221.785,0,0
194831,755.601,-263.739,0,0
196132,809.712,-321.756,0,0
197434,852.247,-384.764,0,0
198735,886.932,-463.424,0,0
200037,898.955,-547.18,0,0
201339,893.458,-635.381,0,0
202640.35,860.525,-712.57,0,0
203941.975,819.514,-777.299,0,0
205243.6,769.953,-832.232,0,0
206545.225,704.474,-866.009,0,0
207846.85,648.159,-878.582,0,0
209148.475,609.967,-883.883,0,0
210450.1,570.511,-898.639,0,0
211751.725,521.743,-905.251,0,0
213053.35,478.707,-895.602,0,0
214354.975,444.439,-882.09,0,0
215656.6,416.414,-866.888,0,0
216958.225,394.494,-848.689,0,0
218259.85,379.248,-831.96,0,0
219561,368.219,-816.616,0,0
220863,360.8,-803.725,0,0
222165,357.042,-793.101,0,0
223466,354.248,-786.916,0,0
224768,351.817,-782.279,0,0
226070,348.942,-779.862,0,0
227371,347.972,-778.822,0,0
228673,347.706,-783.289,0,0
229974,341.619,-792.885,0,0
231276,330.103,-800.062,0,0
232578,316.262,-806.493,0,0
233879,299.063,-809.625,0,0
235180.95,281.597,-809.279,0,0
236482.575,264.926,-806.879,0,0
237784.2,247.493,-802.422,0,0
239085.825,232.162,-795.14,0,0
240387.45,217.601,-786.967,0,0
241689.075,204.869,-777.004,0,0
242990.7,194.848,-766.315,0,0
244292.325,187.293,-757.332,0,0
245593.95,179.419,-751.358,0,0
246895.575,167.671,-745.997,0,0
248197.2,154.119,-736.471,0,0
249498.825,141.754,-723.703,0,0
250800,131.346,-708.255,0,0
252102,124.946,-690.815,0,0
253404,121.781,-674.463,0,0
254705,119.935,-658.626,0,0
256007,120.565,-642.28,0,0
257309,124.152,-627.776,0,0
258610,129.227,-614.679,0,0
259912,136.076,-603.285,0,0
261213,144.496,-594.451,0,0
262515,153.154,-588.546,0,0
263817,160.993,-584.928,0,0
265118,168.459,-582.959,0,0
266420,174.328,-582.919,0,0
267721.55,178.764,-583.369,0,0
269023.175,181.685,-584.715,0,0
270324.8,182.455,-584.813,0,0
271626.425,184.057,-582.214,0,0
272928.05,188.54,-579.077,0,0
274229.675,196.82,-577.318,0,0
275531.3,209.257,-582.701,0,0
276832.925,216.045,-598.107,0,0
278134.55,212.34,-614.146,0,0
279436.175,202.488,-625.918,0,0
280737.8,189.956,-632.822,0,0
282039.425,177.406,-636.655,0,0
283341,162.229,-637.217,0,0
284643,150.056,-632.145,0,0
285944,137.803,-628.25,0,0
287246,123.909,-618.541,0,0
288548,114.729,-601.533,0,0
289849,115.97,-582.365,0,0
291151,126.436,-568.443,0,0
292452,141.953,-565.563,0,0
293754,149.772,-574.376,0,0
295056,146.634,-579.683,0,0
296357,147.993,-577.984,0,0
297659,151.921,-587.707,0,0
298960.525,143.059,-596.797,0,0
300262.15,132.003,-598.399,0,0
301563.775,123.644,-595.486,0,0
302865.4,118.787,-592.568,0,0
304167.025,114.24,-592.251,0,0
305468.65,107.047,-592.241,0,0
306770.275,98.4706,-589.615,0,0
308071.9,90.7983,-585.111,0,0
309373.525,84.1081,-579.508,0,0
310675.15,78.4109,-573.454,0,0
311976.775,73.5253,-566.982,0,0
313278.4,69.5949,-560.35,0,0
314580,66.321,-553.761,0,0
315882,63.7185,-547.363,0,0
317183,61.3492,-540.859,0,0
318485,59.6998,-534.491,0,0
319787,58.6135,-528.534,0,0
321088,57.4557,-522.734,0,0
322390,56.4942,-516.81,0,0
323691,55.8121,-510.793,0,0
324993,55.815,-504.089,0,0
326295,57.9995,-497.489,0,0
327596,61.3618,-493.323,0,0
328898,63.6586,-490.766,0,0
330200,65.8323,-488.87,0,0
331501.125,67.2025,-488.207,0,0
332802.75,66.7929,-488.345,0,0
334104.375,64.3643,-487.482,0,0
335406.0,61.892,-485.005,0,0
336707.625,59.7605,-481.899,0,0
338009.25,57.9002,-478.363,0,0
339310.875,56.3571,-474.543,0,0
340612.5,55.0447,-470.382,0,0
341914.125,54.1468,-465.993,0,0
343215.75,53.6346,-461.521,0,0
344517.375,53.6922,-456.853,0,0
345819.0,54.2744,-452.418,0,0
347121,55.2816,-448.298,0,0
348422,56.6015,-444.449,0,0
349724,58.36,-441.031,0,0
351025,60.2504,-438.283,0,0
352327,61.8269,-436.252,0,0
353629,62.9038,-434.092,0,0
354930,64.1511,-431.947,0,0
356232,65.4026,-429.844,0,0
357534,67.1994,-427.908,0,0
358835,69.1943,-426.795,0,0
360137,70.6481,-426.549,0,0
361438,71.4117,-426.518,0,0
362740.1,71.5894,-426.629,0,0
364041.725,71.2007,-426.595,0,0
365343.35,70.3089,-426.062,0,0
366644.975,69.5207,-424.984,0,0
367946.6,69.05,-423.63,0,0
369248.225,69.1767,-422.76,0,0
370549.85,68.5612,-422.622,0,0
371851.475,67.3009,-421.859,0,0
373153.1,66.4129,-421.004,0,0
374454.725,65.2189,-420.392,0,0
375756.35,63.5576,-419.473,0,0
377057.975,61.9819,-418.239,0,0
378359.6,60.4686,-417.322,0,0
379661,57.6297,-416.211,0,0
380963,54.9747,-412.753,0,0
382264,54.9365,-409.966,0,0
383566,53.777,-408.896,0,0
384868,51.6093,-407.061,0,0
386169,49.4423,-404.44,0,0
387471,47.6134,-401.268,0,0
388773,46.2274,-397.719,0,0
390074,45.7925,-394.038,0,0
391376,46.0244,-391.296,0,0
392677,45.4884,-389.537,0,0
393979,43.7903,-387.268,0,0
395280.7,41.9549,-383.783,0,0
396582.325,41.01,-379.548,0,0
397883.95,40.9284,-375.297,0,0
399185.575,41.4582,-371.375,0,0
400006.6,42.0008,-369.135,0,0