File: Accelerated corrosion test data/2025-10-22_09-25-28/sample_8.csv
Frequency (Hz),Impedance (ohms),Phase (Radians),Temperature (C),Humidity (%)
10000.0,302.589,-10989.9,0,0
11301.625,268.484,-9738.79,0,0
12603.25,247.745,-8745.62,0,0
13904.875,219.45,-7943.01,0,0
15206.5,199.879,-7267.69,0,0
16508.125,184.629,-6700.43,0,0
17809.75,172.157,-6213.01,0,0
19111.375,164.407,-5789.66,0,0
20413.0,158.098,-5427.86,0,0
21714.625,146.399,-5107.42,0,0
23016.25,140.682,-4824.11,0,0
24317.875,129.536,-4566.28,0,0
25619.5,123.209,-4333.12,0,0
26921.1,118.312,-4121.71,0,0
28222.7,115.773,-3931.71,0,0
29524.4,111.727,-3759.05,0,0
30826,107.476,-3600.99,0,0
32127.6,104.028,-3452.77,0,0
33429.2,104.085,-3315.26,0,0
34730.9,105.347,-3190.84,0,0
36032.5,108.598,-3080.76,0,0
37334.1,104.727,-2981.43,0,0
38635.7,94.0754,-2884.09,0,0
39937.4,86.5817,-2786.74,0,0
41239,84.0069,-2696.26,0,0
42540.6,81.1534,-2611.2,0,0
43842.225,80.029,-2533.91,0,0
45143.85,76.1807,-2458.96,0,0
46445.475,73.2296,-2387.69,0,0
47747.1,71.4104,-2320.33,0,0
49048.725,69.3567,-2256.64,0,0
50350.35,67.585,-2195.61,0,0
51651.975,66.5212,-2137.42,0,0
52953.6,66.2849,-2082.53,0,0
54255.225,65.081,-2032.51,0,0
55556.85,62.1676,-1983.14,0,0
56858.475,60.191,-1934.23,0,0
58160.1,59.272,-1887.71,0,0
59461.7,58.3544,-1843.82,0,0
60763.3,57.2664,-1800.85,0,0
62065,56.7429,-1760.01,0,0
63366.6,57.4343,-1720.9,0,0
64668.2,57.1465,-1684.34,0,0
65969.8,56.3703,-1649.13,0,0
67271.5,54.8077,-1614.49,0,0
68573.1,53.7434,-1580.58,0,0
69874.7,53.7095,-1547.44,0,0
71176.3,53.5301,-1516.16,0,0
72478,53.2396,-1486.63,0,0
73779.6,52.4508,-1457.15,0,0
75081.2,51.7253,-1428.47,0,0
76382.825,51.5062,-1400.49,0,0
77684.45,50.9996,-1373.74,0,0
78986.075,50.2879,-1347.28,0,0
80287.7,49.7719,-1321.12,0,0
81589.325,50.0383,-1295.3,0,0
82890.95,50.8871,-1270.32,0,0
84192.575,52.2861,-1247.22,0,0
85494.2,51.3003,-1224.87,0,0
86795.825,51.5322,-1201.2,0,0
88097.45,52.186,-1178.6,0,0
89399.075,52.9413,-1155.72,0,0
90700.7,55.6564,-1132.79,0,0
92002.3,58.9462,-1113.64,0,0
93303.9,61.0582,-1093.4,0,0
94605.6,63.4214,-1075.1,0,0
95907.2,64.9292,-1055.75,0,0
97208.8,68.4318,-1036.32,0,0
98510.4,73.6412,-1018.18,0,0
99812.1,78.307,-1003.1,0,0
101114,83.6679,-989.41,0,0
102415,86.3694,-978.582,0,0
103717,86.989,-966.791,0,0
105019,85.5,-954.992,0,0
106320.175,84.9524,-940.461,0,0
107621.8,84.8142,-927.107,0,0
108923.425,84.9372,-911.956,0,0
110225.05,86.5615,-898.881,0,0
111526.675,87.2709,-886.321,0,0
112828.3,88.0011,-874.25,0,0
114129.925,87.8523,-862.472,0,0
115431.55,87.6317,-850.843,0,0
116733.175,86.0712,-838.48,0,0
118034.8,86.0614,-825.73,0,0
119336.425,85.5622,-813.676,0,0
120638.05,84.5521,-801.066,0,0
121939.675,84.3937,-788.732,0,0
123241,83.6881,-776.727,0,0
124543,82.548,-764.303,0,0
125845,81.1324,-751.296,0,0
127146,80.2666,-737.495,0,0
128448,80.0914,-723.52,0,0
129749,79.9079,-709.658,0,0
131051,81.2568,-695.088,0,0
132353,82.3976,-682.085,0,0
133654,82.9203,-668.839,0,0
134956,84.309,-654.559,0,0
136258,86.4722,-641.806,0,0
137559,86.2238,-629.013,0,0
138860.775,86.4256,-613.078,0,0
140162.4,88.6572,-597.479,0,0
141464.025,90.9941,-581.752,0,0
142765.65,93.7596,-564.38,0,0
144067.275,98.6353,-547.029,0,0
145368.9,105.263,-528.619,0,0
146670.525,114.249,-510.929,0,0
147972.15,123.445,-495.269,0,0
149273.775,134.548,-476.187,0,0
150575.4,153.869,-456.512,0,0
151877.025,180.776,-449.211,0,0
153178.65,198.674,-452.543,0,0
154480,209.756,-453.651,0,0
155782,224.039,-456.371,0,0
157084,221.132,-466.406,0,0
158385,221.206,-456.987,0,0
159687,227.463,-456.794,0,0
160988,219.136,-452.23,0,0
162290,226.083,-435.029,0,0
163592,236.459,-432.002,0,0
164893,242.437,-430.539,0,0
166195,240.716,-433.413,0,0
167497,229.145,-427.683,0,0
168798,219.812,-413.547,0,0
170100,215.005,-391.043,0,0
171401.375,215.242,-365.82,0,0
172703.0,223.99,-338.155,0,0
174004.625,236.58,-315.144,0,0
175306.25,246.873,-292.091,0,0
176607.875,263.122,-263.41,0,0
177909.5,281.971,-233.534,0,0
179211.125,314.532,-199.838,0,0
180512.75,357.007,-175.75,0,0
181814.375,405.368,-156.026,0,0
183116.0,462.71,-155.901,0,0
184417.625,501.691,-161.375,0,0
185719.25,552.891,-166.683,0,0
187021,598.504,-183.402,0,0
188322,638.745,-203.385,0,0
189624,672.313,-224.608,0,0
190926,711.428,-238.808,0,0
192227,751.131,-267.018,0,0
193529,797.192,-278.847,0,0
194831,873.698,-315.709,0,0
196132,946.835,-395.301,0,0
197434,987.995,-510.946,0,0
198735,978.072,-644.611,0,0
200037,911.695,-752.948,0,0
201339,834.723,-814.8,0,0
202640.35,743.566,-860.04,0,0
203941.975,665.66,-853.526,0,0
205243.6,606.284,-841.114,0,0
206545.225,564.956,-807.993,0,0
207846.85,552.705,-781.279,0,0
209148.475,548.231,-768.383,0,0
210450.1,548.04,-756.711,0,0
211751.725,557.096,-756.507,0,0
213053.35,563.559,-770.144,0,0
214354.975,561.954,-789.84,0,0
215656.6,554.56,-812.164,0,0
216958.225,537.766,-834.461,0,0
218259.85,516.885,-854.789,0,0
219561,487.513,-870.821,0,0
220863,454.185,-877.086,0,0
222165,425.436,-872.512,0,0
223466,405.284,-863.594,0,0
224768,392.392,-858.527,0,0
226070,382.011,-859.672,0,0
227371,365.872,-864.854,0,0
228673,347.243,-865.246,0,0
229974,329.733,-869.191,0,0
231276,305.329,-871.742,0,0
232578,278.111,-868.737,0,0
233879,249.318,-859.21,0,0
235180.95,224.083,-841.333,0,0
236482.575,206.42,-819.704,0,0
237784.2,194.794,-798.318,0,0
239085.825,189.087,-777.013,0,0
240387.45,188.901,-761.481,0,0
241689.075,187.643,-752.447,0,0
242990.7,181.856,-743.814,0,0
244292.325,175.489,-732.604,0,0
245593.95,171.432,-720.126,0,0
246895.575,170.636,-708.876,0,0
248197.2,168.83,-699.7,0,0
249498.825,167.044,-690.08,0,0
250800,166.552,-680.061,0,0
252102,168.762,-671.099,0,0
253404,171.745,-666.523,0,0
254705,170.472,-664.484,0,0
256007,165.462,-660.067,0,0
257309,160.55,-651.297,0,0
258610,159.063,-639.788,0,0
259912,162.216,-629.124,0,0
261213,166.298,-621.908,0,0
262515,169.411,-616.227,0,0
263817,172.247,-608.897,0,0
265118,176.749,-600.265,0,0
266420,186.462,-590.335,0,0
267721.55,203.641,-585.161,0,0
269023.175,222.859,-590.029,0,0
270324.8,240.607,-603.545,0,0
271626.425,250.819,-627.54,0,0
272928.05,249.401,-656.675,0,0
274229.675,230.464,-683.806,0,0
275531.3,202.473,-696.071,0,0
276832.925,175.944,-696.219,0,0
278134.55,154.16,-688.985,0,0
279436.175,137.362,-676.868,0,0
280737.8,127.709,-662.654,0,0
282039.425,123.544,-650.88,0,0
283341,121.216,-642.599,0,0
284643,118.898,-634.857,0,0
285944,119.006,-627.626,0,0
287246,122.245,-623.943,0,0
288548,123.525,-627.761,0,0
289849,116.368,-632.955,0,0
291151,105.252,-632.232,0,0
292452,94.8987,-628.144,0,0
293754,85.4678,-621.451,0,0
295056,77.8957,-612.655,0,0
296357,72.8605,-603.559,0,0
297659,68.8735,-594.94,0,0
298960.525,65.7177,-586.121,0,0
300262.15,63.8087,-577.031,0,0
301563.775,63.5174,-568.226,0,0
302865.4,64.6184,-560.593,0,0
304167.025,66.3632,-554.265,0,0
305468.65,68.4734,-549.246,0,0
306770.275,70.1707,-545.593,0,0
308071.9,71.7153,-542.694,0,0
309373.525,71.938,-541.297,0,0
310675.15,70.8421,-538.878,0,0
311976.775,70.1378,-536.359,0,0
313278.4,68.7812,-534.104,0,0
314580,67.0261,-531.286,0,0
315882,65.1382,-528.155,0,0
317183,63.6449,-524.456,0,0
318485,62.3875,-520.894,0,0
319787,61.777,-517.193,0,0
321088,61.3586,-514.18,0,0
322390,60.6985,-511.791,0,0
323691,59.344,-509.841,0,0
324993,57.2173,-507.349,0,0
326295,54.9158,-504.158,0,0
327596,52.976,-500.515,0,0
328898,51.2651,-496.993,0,0
330200,49.4835,-493.126,0,0
331501.125,47.9913,-489.034,0,0
332802.75,46.7324,-484.593,0,0
334104.375,46.1392,-480.003,0,0
335406.0,46.3074,-475.777,0,0
336707.625,46.6096,-472.521,0,0
338009.25,46.4698,-469.75,0,0
339310.875,45.6887,-466.988,0,0
340612.5,44.7107,-463.9,0,0
341914.125,43.5687,-460.543,0,0
343215.75,42.5567,-456.775,0,0
344517.375,41.8,-452.684,0,0
345819.0,41.548,-448.471,0,0
347121,41.6626,-444.311,0,0
348422,42.032,-440.417,0,0
349724,42.675,-436.53,0,0
351025,43.6991,-432.908,0,0
352327,44.9617,-429.831,0,0
353629,46.1111,-427.145,0,0
354930,47.0834,-424.684,0,0
356232,47.9723,-422.422,0,0
357534,48.6643,-420.314,0,0
358835,49.174,-418.226,0,0
360137,49.7225,-416.153,0,0
361438,50.2374,-414.152,0,0
362740.1,50.6663,-412.29,0,0
364041.725,50.9642,-410.45,0,0
365343.35,51.1663,-408.661,0,0
366644.975,51.2129,-406.734,0,0
367946.6,51.2855,-404.718,0,0
369248.225,51.5017,-402.47,0,0
370549.85,52.397,-400.329,0,0
371851.475,53.3468,-399.176,0,0
373153.1,53.6871,-398.498,0,0
374454.725,53.1159,-397.93,0,0
375756.35,51.9202,-396.533,0,0
377057.975,51.3257,-394.55,0,0
378359.6,50.7714,-393.032,0,0
379661,49.5349,-391.021,0,0
380963,49.4059,-388.061,0,0
382264,50.1484,-386.463,0,0
383566,49.7611,-385.727,0,0
384868,48.3648,-384.547,0,0
386169,46.6867,-382.578,0,0
387471,45.1309,-379.878,0,0
388773,44.1307,-376.648,0,0
390074,43.7582,-373.446,0,0
391376,43.6267,-370.517,0,0
392677,43.4746,-367.771,0,0
393979,43.3625,-364.927,0,0
395280.7,43.3762,-361.917,0,0
396582.325,43.7431,-358.995,0,0
397883.95,44.1084,-356.341,0,0
399185.575,44.508,-353.735,0,0
400006.6,44.7228,-352.125,0,0