File: Accelerated corrosion test data/2025-10-22_09-25-28/sample_7.csv
Frequency (Hz),Impedance (ohms),Phase (Radians),Temperature (C),Humidity (%)
10000.0,272.042,-12107.5,0,0
11301.625,245.777,-10709.9,0,0
12603.25,257.87,-9665.34,0,0
13904.875,207.39,-8765.52,0,0
15206.5,195.34,-8024.14,0,0
16508.125,170.306,-7382.87,0,0
17809.75,166.53,-6826.41,0,0
19111.375,186.538,-6388.42,0,0
20413.0,166.831,-5982.99,0,0
21714.625,155.822,-5647.88,0,0
23016.25,129.009,-5325.34,0,0
24317.875,121.228,-5032.12,0,0
25619.5,117.205,-4767.94,0,0
26921.1,120.454,-4522.53,0,0
28222.7,177.873,-4296.83,0,0
29524.4,139.851,-4185.55,0,0
30826,131.416,-3995.23,0,0
32127.6,117.033,-3846.97,0,0
33429.2,100.51,-3696.31,0,0
34730.9,91.0038,-3550.68,0,0
36032.5,87.8182,-3416.68,0,0
37334.1,85.1802,-3292.57,0,0
38635.7,85.8754,-3175.11,0,0
39937.4,99.7035,-3075.29,0,0
41239,86.4694,-2989.51,0,0
42540.6,79.0149,-2892.99,0,0
43842.225,78.2775,-2804.02,0,0
45143.85,80.065,-2725.66,0,0
46445.475,76.7744,-2652.4,0,0
47747.1,70.1685,-2577.57,0,0
49048.725,67.091,-2506.55,0,0
50350.35,65.3811,-2439.28,0,0
51651.975,63.8183,-2375.37,0,0
52953.6,63.0528,-2314.91,0,0
54255.225,61.6099,-2258.32,0,0
55556.85,60.2495,-2203.45,0,0
56858.475,59.4917,-2150.91,0,0
58160.1,58.5587,-2100.68,0,0
59461.7,58.5689,-2053.15,0,0
60763.3,58.3549,-2009.27,0,0
62065,56.1114,-1965.6,0,0
63366.6,55.0115,-1922.85,0,0
64668.2,54.1711,-1882.02,0,0
65969.8,54.3269,-1843.61,0,0
67271.5,52.3505,-1806.86,0,0
68573.1,51.3404,-1769.89,0,0
69874.7,50.7891,-1734.8,0,0
71176.3,50.5092,-1701.18,0,0
72478,49.5166,-1668.81,0,0
73779.6,48.672,-1636.84,0,0
75081.2,48.0214,-1606.15,0,0
76382.825,47.5848,-1576.3,0,0
77684.45,47.3892,-1547.36,0,0
78986.075,47.1318,-1519.5,0,0
80287.7,46.9191,-1492.44,0,0
81589.325,46.4673,-1466.28,0,0
82890.95,46.3245,-1440.39,0,0
84192.575,46.2729,-1415.35,0,0
85494.2,46.3236,-1391.38,0,0
86795.825,46.3034,-1368.02,0,0
88097.45,46.3762,-1345.3,0,0
89399.075,45.7951,-1323.04,0,0
90700.7,45.9902,-1300.68,0,0
92002.3,46.1616,-1278.91,0,0
93303.9,46.9683,-1257,0,0
94605.6,50.5409,-1238.1,0,0
95907.2,48.8565,-1220.59,0,0
97208.8,48.4556,-1200.33,0,0
98510.4,48.9979,-1181.17,0,0
99812.1,48.4858,-1162.56,0,0
101114,50.1678,-1143.2,0,0
102415,52.0206,-1124.73,0,0
103717,54.6205,-1108.22,0,0
105019,55.6489,-1093.48,0,0
106320.175,55.1713,-1077.5,0,0
107621.8,55.6922,-1060.87,0,0
108923.425,56.8088,-1044.45,0,0
110225.05,57.4203,-1027.64,0,0
111526.675,60.7174,-1010.33,0,0
112828.3,65.22,-993.927,0,0
114129.925,70.7422,-979.621,0,0
115431.55,77.7675,-966.826,0,0
116733.175,86.7273,-958.663,0,0
118034.8,91.0919,-954.403,0,0
119336.425,93.6778,-953.895,0,0
120638.05,85.8468,-953.769,0,0
121939.675,74.3459,-943.37,0,0
123241,67.4466,-930.268,0,0
124543,62.2239,-916.338,0,0
125845,57.6432,-902.329,0,0
127146,53.8514,-886.982,0,0
128448,52.4581,-871.727,0,0
129749,50.9644,-857.498,0,0
131051,49.3425,-842.979,0,0
132353,48.3987,-827.694,0,0
133654,48.9797,-811.75,0,0
134956,52.2514,-797.101,0,0
136258,56.5611,-784.967,0,0
137559,55.8813,-777.482,0,0
138860.775,53.5504,-764.592,0,0
140162.4,53.2458,-750.403,0,0
141464.025,53.0903,-736.863,0,0
142765.65,54.5169,-721.887,0,0
144067.275,57.5041,-708.666,0,0
145368.9,58.979,-696.651,0,0
146670.525,60.4432,-683.515,0,0
147972.15,61.6574,-671.427,0,0
149273.775,61.6189,-658.327,0,0
150575.4,61.4043,-642.924,0,0
151877.025,63.0066,-625.267,0,0
153178.65,66.7677,-607.341,0,0
154480,72.1429,-589.064,0,0
155782,79.9953,-570.263,0,0
157084,90.7677,-552.65,0,0
158385,104.145,-538.551,0,0
159687,114.016,-529.357,0,0
160988,117.596,-515.791,0,0
162290,124.544,-492.695,0,0
163592,140.14,-467.563,0,0
164893,162.15,-445.723,0,0
166195,189.054,-419.526,0,0
167497,232.83,-396.309,0,0
168798,293.752,-389.464,0,0
170100,357.136,-410.735,0,0
171401.375,411.683,-459.196,0,0
172703.0,442.183,-531.61,0,0
174004.625,420.565,-613.723,0,0
175306.25,360.416,-641.276,0,0
176607.875,331.477,-630.862,0,0
177909.5,333.135,-625.619,0,0
179211.125,338.601,-661.442,0,0
180512.75,309.554,-687.345,0,0
181814.375,270.275,-701.2,0,0
183116.0,221.288,-698.354,0,0
184417.625,190.306,-673.426,0,0
185719.25,169.407,-651.042,0,0
187021,155.222,-622.949,0,0
188322,151.214,-599.868,0,0
189624,142.395,-582.156,0,0
190926,135.248,-557.822,0,0
192227,134.676,-532.915,0,0
193529,136.728,-506.834,0,0
194831,143.928,-482.908,0,0
196132,154.501,-462.16,0,0
197434,166.234,-443.878,0,0
198735,175.657,-428.322,0,0
200037,184.925,-408.964,0,0
201339,198.305,-387.074,0,0
202640.35,217.272,-363.558,0,0
203941.975,243.248,-342.111,0,0
205243.6,276.675,-323.093,0,0
206545.225,318.135,-318.12,0,0
207846.85,348.641,-318.172,0,0
209148.475,386.065,-310.292,0,0
210450.1,444.7,-314.277,0,0
211751.725,499.95,-356.437,0,0
213053.35,523.264,-407.897,0,0
214354.975,536.497,-452.984,0,0
215656.6,538.885,-498.795,0,0
216958.225,536.357,-543.893,0,0
218259.85,516.948,-589.965,0,0
219561,474.074,-620.894,0,0
220863,435.697,-621.65,0,0
222165,414.81,-611.089,0,0
223466,407.372,-603.796,0,0
224768,401.864,-599.861,0,0
226070,403.376,-592.341,0,0
227371,413.443,-593.543,0,0
228673,426.127,-605.285,0,0
229974,430.171,-626.423,0,0
231276,427.85,-652.428,0,0
232578,418.334,-677.569,0,0
233879,396.011,-709.331,0,0
235180.95,354.765,-724.168,0,0
236482.575,317.642,-719.827,0,0
237784.2,286.216,-706.492,0,0
239085.825,270.556,-682.941,0,0
240387.45,268.805,-670.907,0,0
241689.075,257.209,-669.454,0,0
242990.7,239.414,-655.896,0,0
244292.325,233.136,-635.327,0,0
245593.95,237.978,-624.993,0,0
246895.575,233.729,-619.918,0,0
248197.2,228.477,-609.553,0,0
249498.825,226.456,-595.527,0,0
250800,230.632,-581.507,0,0
252102,239.988,-570.493,0,0
253404,254.753,-566.604,0,0
254705,266.169,-572.759,0,0
256007,269.656,-582.654,0,0
257309,265.736,-590.285,0,0
258610,260.346,-591.504,0,0
259912,257.268,-592.613,0,0
261213,251.832,-591.388,0,0
262515,250.268,-585.953,0,0
263817,255.444,-583.607,0,0
265118,259.246,-588.013,0,0
266420,259.837,-593.042,0,0
267721.55,258.682,-601.117,0,0
269023.175,250.723,-606.63,0,0
270324.8,244.359,-604.478,0,0
271626.425,248.571,-602.705,0,0
272928.05,257.603,-618.028,0,0
274229.675,246.72,-643.854,0,0
275531.3,217.164,-661.008,0,0
276832.925,180.657,-657.775,0,0
278134.55,153.939,-637.899,0,0
279436.175,141.507,-614.115,0,0
280737.8,137.495,-594.164,0,0
282039.425,136.367,-580.464,0,0
283341,133.145,-566.268,0,0
284643,134.895,-549.22,0,0
285944,142.305,-536.643,0,0
287246,149.487,-530.138,0,0
288548,152.384,-526.278,0,0
289849,153.086,-519.086,0,0
291151,156.591,-509.057,0,0
292452,163.353,-501.105,0,0
293754,171.165,-494.208,0,0
295056,180.29,-488.364,0,0
296357,191.434,-484.1,0,0
297659,204.839,-481.817,0,0
298960.525,219.818,-483.63,0,0
300262.15,236.63,-488.77,0,0
301563.775,255.644,-501.764,0,0
302865.4,270.055,-528.471,0,0
304167.025,267.049,-560.549,0,0
305468.65,252.415,-585.627,0,0
306770.275,230.444,-602.834,0,0
308071.9,206.974,-610.566,0,0
309373.525,183.962,-610.84,0,0
310675.15,166.006,-604.511,0,0
311976.775,153.028,-597.856,0,0
313278.4,141.183,-591.304,0,0
314580,130.602,-582.573,0,0
315882,123.423,-572.435,0,0
317183,119.396,-563.584,0,0
318485,116.347,-556.003,0,0
319787,114.327,-549.377,0,0
321088,112.828,-544.048,0,0
322390,111.238,-539.481,0,0
323691,109.57,-535.564,0,0
324993,107.62,-531.639,0,0
326295,106.558,-527.804,0,0
327596,105.715,-525.601,0,0
328898,103.449,-524.246,0,0
330200,100.311,-522.559,0,0
331501.125,96.5773,-520.962,0,0
332802.75,91.6442,-518.831,0,0
334104.375,86.1167,-515.2,0,0
335406.0,81.0864,-510.551,0,0
336707.625,76.3999,-505.041,0,0
338009.25,72.4275,-498.69,0,0
339310.875,69.3469,-492.172,0,0
340612.5,66.8573,-485.584,0,0
341914.125,65.02,-478.523,0,0
343215.75,64.2392,-471.418,0,0
344517.375,64.6449,-464.771,0,0
345819.0,65.8933,-459.431,0,0
347121,66.3477,-455.629,0,0
348422,65.5065,-451.737,0,0
349724,64.3253,-446.655,0,0
351025,63.6416,-440.989,0,0
352327,64.0049,-434.379,0,0
353629,65.9203,-428.59,0,0
354930,68.4465,-423.961,0,0
356232,70.8329,-421.014,0,0
357534,71.4931,-419.05,0,0
358835,70.2852,-415.849,0,0
360137,69.5691,-410.643,0,0
361438,70.3392,-404.673,0,0
362740.1,72.4217,-399.05,0,0
364041.725,75.2509,-393.997,0,0
365343.35,78.949,-389.745,0,0
366644.975,82.6562,-386.958,0,0
367946.6,86.0134,-384.52,0,0
369248.225,89.2563,-382.972,0,0
370549.85,91.7915,-382.649,0,0
371851.475,91.9851,-382.21,0,0
373153.1,91.886,-379.57,0,0
374454.725,93.0916,-376.239,0,0
375756.35,95.1004,-373.617,0,0
377057.975,96.5801,-371.692,0,0
378359.6,97.4966,-368.99,0,0
379661,99.3057,-365.685,0,0
380963,101.377,-362.925,0,0
382264,103.767,-359.969,0,0
383566,106.55,-357.398,0,0
384868,109.271,-355.005,0,0
386169,112.137,-352.864,0,0
387471,114.515,-350.69,0,0
388773,117.298,-347.118,0,0
390074,122.389,-343.943,0,0
391376,127.917,-342.186,0,0
392677,133.378,-341.736,0,0
393979,137.871,-341.617,0,0
395280.7,142.677,-340.236,0,0
396582.325,149.557,-338.668,0,0
397883.95,159.31,-338.472,0,0
399185.575,171.921,-342.829,0,0
400006.6,179.543,-349.508,0,0