File: Accelerated corrosion test data/2025-10-22_09-25-28/sample_5.csv
Frequency (Hz),Impedance (ohms),Phase (Radians),Temperature (C),Humidity (%)
10000.0,3768.36,-3338.53,0,0
11301.625,3446.68,-3159.2,0,0
12603.25,3183.84,-3113.47,0,0
13904.875,2946.8,-3069.51,0,0
15206.5,2736.01,-3007.09,0,0
16508.125,2545.46,-2948.79,0,0
17809.75,2372.32,-2894.21,0,0
19111.375,2217.86,-2824.08,0,0
20413.0,2077.19,-2760.38,0,0
21714.625,1933.28,-2741.92,0,0
23016.25,1829.57,-2638.86,0,0
24317.875,1723.47,-2573.84,0,0
25619.5,1624.96,-2515.28,0,0
26921.1,1538.72,-2450.04,0,0
28222.7,1444.86,-2412.59,0,0
29524.4,1375.52,-2342.93,0,0
30826,1304.17,-2288.76,0,0
32127.6,1241.33,-2231.36,0,0
33429.2,1183.3,-2175.6,0,0
34730.9,1124.52,-2129.59,0,0
36032.5,1076.38,-2075.15,0,0
37334.1,1035.92,-2017.34,0,0
38635.7,974.64,-1993.04,0,0
39937.4,929.75,-1952.57,0,0
41239,889.464,-1910.64,0,0
42540.6,856.678,-1865.92,0,0
43842.225,825.858,-1821.72,0,0
45143.85,788.273,-1788.33,0,0
46445.475,745.378,-1763.87,0,0
47747.1,734.365,-1709.67,0,0
49048.725,693.274,-1689.7,0,0
50350.35,678.61,-1646.62,0,0
51651.975,651.275,-1618.59,0,0
52953.6,628.28,-1587.49,0,0
54255.225,609.122,-1555,0,0
55556.85,591.115,-1523.19,0,0
56858.475,572.945,-1494.91,0,0
58160.1,555.292,-1468.03,0,0
59461.7,537.603,-1440.98,0,0
60763.3,507.547,-1424.85,0,0
62065,492.772,-1397.38,0,0
63366.6,479.74,-1371.14,0,0
64668.2,467.124,-1346.06,0,0
65969.8,457.147,-1319.04,0,0
67271.5,439.122,-1299.82,0,0
68573.1,427.655,-1277.14,0,0
69874.7,417.595,-1254.11,0,0
71176.3,407.303,-1233.36,0,0
72478,394.689,-1214.65,0,0
73779.6,385.487,-1194.64,0,0
75081.2,386.418,-1169.2,0,0
76382.825,378.576,-1149.1,0,0
77684.45,367.849,-1131.22,0,0
78986.075,359.916,-1112.17,0,0
80287.7,350.367,-1095.51,0,0
81589.325,341.19,-1078.23,0,0
82890.95,331.907,-1060.79,0,0
84192.575,343.956,-1028.98,0,0
85494.2,324.144,-1021.16,0,0
86795.825,317.153,-1004.33,0,0
88097.45,305.988,-989.602,0,0
89399.075,289.813,-978.758,0,0
90700.7,285.685,-962.828,0,0
92002.3,281.512,-947.612,0,0
93303.9,276.7,-932.802,0,0
94605.6,273.585,-916.001,0,0
95907.2,259.695,-906.681,0,0
97208.8,252.213,-893.281,0,0
98510.4,248.336,-877.54,0,0
99812.1,244.189,-862.447,0,0
101114,249.955,-842.769,0,0
102415,248.948,-827.786,0,0
103717,237.802,-818.768,0,0
105019,232.691,-806.071,0,0
106320.175,226.909,-793.199,0,0
107621.8,223.305,-778.769,0,0
108923.425,218.861,-765.379,0,0
110225.05,215.716,-751.417,0,0
111526.675,212.093,-737.602,0,0
112828.3,208.726,-723.89,0,0
114129.925,206.507,-710.326,0,0
115431.55,204.563,-696.763,0,0
116733.175,202.426,-683.296,0,0
118034.8,200.479,-670.429,0,0
119336.425,199.015,-658.517,0,0
120638.05,197.601,-646.857,0,0
121939.675,195.423,-635.482,0,0
123241,192.767,-623.78,0,0
124543,191.209,-610.379,0,0
125845,192.032,-596.635,0,0
127146,190.962,-584.725,0,0
128448,189.592,-572.78,0,0
129749,188.865,-559.783,0,0
131051,186.363,-547.05,0,0
132353,184.317,-532.992,0,0
133654,182.015,-519.548,0,0
134956,183.61,-503.884,0,0
136258,183.639,-489.818,0,0
137559,189.205,-472.373,0,0
138860.775,190.503,-459.938,0,0
140162.4,191.429,-448.253,0,0
141464.025,191.758,-437.332,0,0
142765.65,194.008,-424.184,0,0
144067.275,196.08,-411.001,0,0
145368.9,198.523,-396.375,0,0
146670.525,201.57,-380.976,0,0
147972.15,206.128,-364.317,0,0
149273.775,210.994,-348.006,0,0
150575.4,216.492,-330.184,0,0
151877.025,225.076,-311.465,0,0
153178.65,235.697,-292.906,0,0
154480,249.074,-275.086,0,0
155782,265.529,-258.473,0,0
157084,283.078,-245.032,0,0
158385,299.36,-233.228,0,0
159687,317.656,-220.974,0,0
160988,338.257,-210.22,0,0
162290,360.427,-202.662,0,0
163592,383.188,-199.068,0,0
164893,403.392,-198.702,0,0
166195,422.292,-199.384,0,0
167497,439.362,-198.963,0,0
168798,456.894,-200.754,0,0
170100,473.68,-201.998,0,0
171401.375,490.113,-203.763,0,0
172703.0,504.192,-205.791,0,0
174004.625,520.424,-212.224,0,0
175306.25,533.213,-213.787,0,0
176607.875,548.943,-216.799,0,0
177909.5,566.355,-221.587,0,0
179211.125,581.269,-226.27,0,0
180512.75,595.45,-230.657,0,0
181814.375,611.161,-234.153,0,0
183116.0,631.034,-240.197,0,0
184417.625,649.941,-248.365,0,0
185719.25,666.572,-257.105,0,0
187021,683.702,-265.519,0,0
188322,701.682,-271.891,0,0
189624,726.012,-281.42,0,0
190926,752.147,-293.724,0,0
192227,780.558,-311.522,0,0
193529,809.88,-337.258,0,0
194831,838.296,-372.395,0,0
196132,860.292,-412.459,0,0
197434,875.511,-458.828,0,0
198735,882.212,-508.904,0,0
200037,878.578,-556.651,0,0
201339,869.706,-611.501,0,0
202640.35,851.585,-660.344,0,0
203941.975,825.922,-703.553,0,0
205243.6,794.637,-741.697,0,0
206545.225,758.329,-772.627,0,0
207846.85,720.07,-795.128,0,0
209148.475,680.29,-814.641,0,0
210450.1,641.268,-825.357,0,0
211751.725,603.178,-831.865,0,0
213053.35,568.239,-831.347,0,0
214354.975,534.053,-830.874,0,0
215656.6,503.782,-824.853,0,0
216958.225,476.677,-815.246,0,0
218259.85,450.398,-806.806,0,0
219561,426.902,-795.551,0,0
220863,408.34,-779.495,0,0
222165,389.259,-766.992,0,0
223466,374.233,-753.066,0,0
224768,366.254,-733.692,0,0
226070,353.931,-723.325,0,0
227371,347.095,-709.428,0,0
228673,341.618,-697.237,0,0
229974,337.51,-685.957,0,0
231276,334.554,-675.946,0,0
232578,334.266,-664.539,0,0
233879,333.571,-656.113,0,0
235180.95,334.524,-648.007,0,0
236482.575,336.865,-640.426,0,0
237784.2,337.708,-637.453,0,0
239085.825,340.817,-633.748,0,0
240387.45,342.517,-633.349,0,0
241689.075,345.254,-631.59,0,0
242990.7,344.86,-634.175,0,0
244292.325,344.45,-634.983,0,0
245593.95,341.39,-637.113,0,0
246895.575,336.61,-638.619,0,0
248197.2,332.056,-636.913,0,0
249498.825,331.376,-629.122,0,0
250800,334.21,-624.679,0,0
252102,343.729,-625.107,0,0
253404,348.932,-636.073,0,0
254705,346.989,-650.598,0,0
256007,337.069,-666.221,0,0
257309,323.244,-677.62,0,0
258610,308.745,-683.407,0,0
259912,289.118,-690.467,0,0
261213,275.437,-689.315,0,0
262515,267.405,-682.369,0,0
263817,257.591,-677.024,0,0
265118,239.284,-679.137,0,0
266420,237.82,-667.871,0,0
267721.55,219.995,-670.129,0,0
269023.175,212.388,-665.223,0,0
270324.8,204.88,-660.7,0,0
271626.425,196.694,-656.241,0,0
272928.05,188.929,-650.862,0,0
274229.675,181.598,-644.921,0,0
275531.3,173.868,-638.861,0,0
276832.925,167.349,-631.705,0,0
278134.55,161.293,-624.077,0,0
279436.175,156.516,-615.874,0,0
280737.8,153.27,-607.812,0,0
282039.425,151.218,-600.547,0,0
283341,149.628,-594.44,0,0
284643,147.16,-589.41,0,0
285944,145.562,-584.23,0,0
287246,143.897,-579.421,0,0
288548,142.572,-574.992,0,0
289849,140.788,-571.457,0,0
291151,138.607,-568.109,0,0
292452,136.021,-564.365,0,0
293754,133.249,-560.297,0,0
295056,130.344,-556.008,0,0
296357,127.915,-551.057,0,0
297659,126.199,-545.828,0,0
298960.525,125.438,-541.091,0,0
300262.15,125.069,-537.281,0,0
301563.775,124.311,-534.239,0,0
302865.4,123.241,-531.377,0,0
304167.025,120.629,-529.022,0,0
305468.65,118.76,-525.962,0,0
306770.275,116.643,-522.672,0,0
308071.9,114.634,-519.342,0,0
309373.525,112.741,-515.731,0,0
310675.15,110.407,-512.396,0,0
311976.775,113.78,-506.582,0,0
313278.4,112.541,-502.85,0,0
314580,113.725,-498.021,0,0
315882,114.38,-493.458,0,0
317183,111.519,-490.562,0,0
318485,112.731,-486.062,0,0
319787,110.759,-483.136,0,0
321088,110.964,-479.35,0,0
322390,111.913,-475.452,0,0
323691,112.487,-471.633,0,0
324993,110.848,-469.01,0,0
326295,110.791,-465.339,0,0
327596,108.891,-462.518,0,0
328898,105.685,-460.231,0,0
330200,104.633,-456.888,0,0
331501.125,106.311,-452.317,0,0
332802.75,87.6299,-456.651,0,0
334104.375,86.7104,-453.525,0,0
335406.0,85.8039,-450.377,0,0
336707.625,84.9076,-447.277,0,0
338009.25,84.1702,-444.213,0,0
339310.875,98.4984,-434.934,0,0
340612.5,94.6977,-433.28,0,0
341914.125,94.117,-430.226,0,0
343215.75,93.7453,-427.228,0,0
344517.375,93.5848,-424.126,0,0
345819.0,92.7918,-421.378,0,0
347121,87.7429,-420.479,0,0
348422,89.8705,-416.504,0,0
349724,89.4111,-413.626,0,0
351025,86.3787,-411.84,0,0
352327,85.8702,-409.004,0,0
353629,85.3754,-406.106,0,0
354930,74.8172,-407.168,0,0
356232,83.7407,-400.546,0,0
357534,83.4677,-397.572,0,0
358835,82.2174,-395.021,0,0
360137,80.9467,-392.462,0,0
361438,79.6008,-389.824,0,0
362740.1,78.8522,-387.025,0,0
364041.725,79.3772,-383.683,0,0
365343.35,80.3726,-380.17,0,0
366644.975,82.2576,-376.245,0,0
367946.6,84.276,-372.378,0,0
369248.225,85.6326,-368.818,0,0
370549.85,86.1581,-365.709,0,0
371851.475,86.9538,-362.646,0,0
373153.1,86.1703,-360.065,0,0
374454.725,101.713,-349.794,0,0
375756.35,102.824,-347.01,0,0
377057.975,101.348,-345.806,0,0
378359.6,98.9477,-344.896,0,0
379661,91.8964,-346.306,0,0
380963,76.3724,-350.975,0,0
382264,75.6731,-348.639,0,0
383566,74.8888,-346.58,0,0
384868,73.859,-344.422,0,0
386169,73.5867,-341.74,0,0
387471,73.7507,-338.825,0,0
388773,73.4065,-336.053,0,0
390074,73.2106,-333.245,0,0
391376,72.8881,-330.487,0,0
392677,72.3348,-327.859,0,0
393979,72.1154,-325.115,0,0
395280.7,71.659,-322.472,0,0
396582.325,71.6918,-319.576,0,0
397883.95,72.3715,-316.504,0,0
399185.575,72.6399,-313.613,0,0
400006.6,73.0766,-311.692,0,0