File: Accelerated corrosion test data/2025-10-22_09-25-28/sample_1.csv
Frequency (Hz),Impedance (ohms),Phase (Radians),Temperature (C),Humidity (%)
10000.0,242.007,-12221.9,0,0
11301.625,215.434,-10825.1,0,0
12603.25,195.777,-9723.19,0,0
13904.875,182.857,-8798.75,0,0
15206.5,190.282,-8064.01,0,0
16508.125,155.378,-7441.37,0,0
17809.75,147.01,-6902.72,0,0
19111.375,136.515,-6434.56,0,0
20413.0,155.936,-5990.41,0,0
21714.625,135.737,-5672.23,0,0
23016.25,122.008,-5370.67,0,0
24317.875,113.347,-5077.91,0,0
25619.5,104.766,-4812.68,0,0
26921.1,113.736,-4562.32,0,0
28222.7,110.839,-4359.41,0,0
29524.4,107.803,-4194.58,0,0
30826,101.105,-4005.78,0,0
32127.6,98.0791,-3848.06,0,0
33429.2,89.5167,-3704.63,0,0
34730.9,81.8477,-3562.12,0,0
36032.5,77.9833,-3430.59,0,0
37334.1,75.3932,-3308.34,0,0
38635.7,73.1324,-3194.43,0,0
39937.4,71.3952,-3087.26,0,0
41239,72.2183,-2988.47,0,0
42540.6,70.4697,-2896.34,0,0
43842.225,67.9999,-2809.43,0,0
45143.85,67.8789,-2727.98,0,0
46445.475,65.1412,-2650.82,0,0
47747.1,64.0587,-2576.87,0,0
49048.725,61.4747,-2506.46,0,0
50350.35,59.4861,-2439.85,0,0
51651.975,58.7936,-2376.31,0,0
52953.6,57.6467,-2315.37,0,0
54255.225,56.6251,-2258.27,0,0
55556.85,55.6364,-2202.59,0,0
56858.475,54.8292,-2149.46,0,0
58160.1,54.4766,-2098.85,0,0
59461.7,54.1882,-2050.82,0,0
60763.3,54.4262,-2004.94,0,0
62065,52.9633,-1960.91,0,0
63366.6,52.3966,-1917.37,0,0
64668.2,52.6894,-1874.91,0,0
65969.8,54.9294,-1837.21,0,0
67271.5,53.6531,-1800.98,0,0
68573.1,52.9712,-1765.18,0,0
69874.7,52.0592,-1730.91,0,0
71176.3,49.9739,-1696.26,0,0
72478,48.1952,-1662.68,0,0
73779.6,47.9892,-1629.18,0,0
75081.2,48.3011,-1596.74,0,0
76382.825,48.8387,-1565.88,0,0
77684.45,50.0232,-1536.42,0,0
78986.075,51.6495,-1508.84,0,0
80287.7,50.8468,-1482.25,0,0
81589.325,50.206,-1454.52,0,0
82890.95,50.8323,-1427.66,0,0
84192.575,52.399,-1401.52,0,0
85494.2,54.2516,-1376.62,0,0
86795.825,55.3972,-1353.3,0,0
88097.45,55.9408,-1330.07,0,0
89399.075,57.7009,-1305.28,0,0
90700.7,60.9942,-1282.37,0,0
92002.3,67.2592,-1261.01,0,0
93303.9,74.6545,-1243.05,0,0
94605.6,73.3743,-1237.1,0,0
95907.2,67.0766,-1217.67,0,0
97208.8,65.2624,-1197.33,0,0
98510.4,64.2583,-1177.24,0,0
99812.1,63.4078,-1157.7,0,0
101114,62.9736,-1137.29,0,0
102415,63.4213,-1115.57,0,0
103717,68.5686,-1094.37,0,0
105019,75.0475,-1077.45,0,0
106320.175,80.5298,-1061.13,0,0
107621.8,86.9804,-1048,0,0
108923.425,91.4031,-1036.91,0,0
110225.05,94.0447,-1028.17,0,0
111526.675,94.0567,-1015.88,0,0
112828.3,97.609,-1006,0,0
114129.925,96.5348,-999.026,0,0
115431.55,93.0048,-989.707,0,0
116733.175,88.6318,-978.061,0,0
118034.8,83.8616,-964.265,0,0
119336.425,81.6392,-948.9,0,0
120638.05,81.585,-934.469,0,0
121939.675,80.2382,-921.778,0,0
123241,78.8024,-906.829,0,0
124543,78.8192,-892.067,0,0
125845,79.3059,-877.26,0,0
127146,80.2921,-862.852,0,0
128448,82.114,-848.076,0,0
129749,84.9559,-833.944,0,0
131051,89.5221,-820.819,0,0
132353,93.7706,-809.724,0,0
133654,96.6821,-799.126,0,0
134956,99.9057,-788.145,0,0
136258,103.193,-777.458,0,0
137559,108.51,-767.995,0,0
138860.775,110.701,-762.452,0,0
140162.4,109.846,-753.954,0,0
141464.025,109.786,-744.069,0,0
142765.65,110.234,-733.26,0,0
144067.275,111.616,-721.714,0,0
145368.9,114.186,-710.227,0,0
146670.525,117.833,-700.584,0,0
147972.15,119.318,-692.614,0,0
149273.775,120.797,-682.147,0,0
150575.4,122.046,-673.151,0,0
151877.025,121.15,-662.159,0,0
153178.65,120.86,-647.466,0,0
154480,124.545,-631.251,0,0
155782,131.225,-614.412,0,0
157084,142.995,-598.529,0,0
158385,155.212,-589.852,0,0
159687,163.991,-578.13,0,0
160988,182.09,-565.938,0,0
162290,201.687,-565.847,0,0
163592,212.495,-567.716,0,0
164893,226.195,-567.177,0,0
166195,239.596,-573.778,0,0
167497,247.425,-584.268,0,0
168798,247.416,-597.219,0,0
170100,239.469,-605.265,0,0
171401.375,230.797,-604.264,0,0
172703.0,226.336,-599.555,0,0
174004.625,224.041,-595.98,0,0
175306.25,222.284,-591.815,0,0
176607.875,220.98,-589.426,0,0
177909.5,218.676,-585.462,0,0
179211.125,216.064,-584.676,0,0
180512.75,207.471,-582.537,0,0
181814.375,199.05,-573.478,0,0
183116.0,192.435,-562.257,0,0
184417.625,187.574,-548.057,0,0
185719.25,186.27,-532.659,0,0
187021,187.046,-517.935,0,0
188322,190.504,-502.392,0,0
189624,194.129,-489.039,0,0
190926,196.883,-473.993,0,0
192227,202.397,-457.078,0,0
193529,210.606,-439.219,0,0
194831,221.689,-422.408,0,0
196132,235.169,-405.418,0,0
197434,251.369,-389.75,0,0
198735,269.269,-375.307,0,0
200037,288.072,-359.888,0,0
201339,311.782,-344.213,0,0
202640.35,343.239,-327.042,0,0
203941.975,385.798,-316.31,0,0
205243.6,437.365,-321.9,0,0
206545.225,483.161,-346.66,0,0
207846.85,514.454,-382.228,0,0
209148.475,533.37,-421.864,0,0
210450.1,534.572,-462.255,0,0
211751.725,521.356,-482.353,0,0
213053.35,521.179,-483.971,0,0
214354.975,533.604,-494.792,0,0
215656.6,543.693,-509.946,0,0
216958.225,553.553,-525.159,0,0
218259.85,563.006,-542.349,0,0
219561,575.977,-557.243,0,0
220863,594.608,-580.185,0,0
222165,612.476,-615.4,0,0
223466,619.98,-661.964,0,0
224768,611.055,-711.178,0,0
226070,593.979,-755.352,0,0
227371,563.989,-798.403,0,0
228673,524,-831.922,0,0
229974,477.703,-850.686,0,0
231276,435,-855.885,0,0
232578,398.821,-853.611,0,0
233879,369.541,-846.951,0,0
235180.95,347.156,-842.269,0,0
236482.575,323.34,-839.025,0,0
237784.2,299.627,-833.54,0,0
239085.825,277.172,-824.907,0,0
240387.45,257.524,-814.397,0,0
241689.075,240.331,-803.203,0,0
242990.7,224.955,-790.917,0,0
244292.325,212.87,-779.214,0,0
245593.95,201.147,-768.828,0,0
246895.575,189.145,-757.925,0,0
248197.2,178.726,-745.336,0,0
249498.825,170.001,-732.807,0,0
250800,162.712,-719.96,0,0
252102,156.894,-708.29,0,0
253404,150.908,-696.001,0,0
254705,147.19,-682.983,0,0
256007,145.102,-671.408,0,0
257309,143.342,-660.061,0,0
258610,142.551,-648.38,0,0
259912,144.127,-636.615,0,0
261213,148.057,-627.139,0,0
262515,152.501,-619.727,0,0
263817,157.324,-614.02,0,0
265118,163.16,-609.726,0,0
266420,170.149,-609.643,0,0
267721.55,174.279,-615.141,0,0
269023.175,170.916,-622.847,0,0
270324.8,161.162,-626.004,0,0
271626.425,149.96,-622.404,0,0
272928.05,142.411,-613.992,0,0
274229.675,138.955,-605.093,0,0
275531.3,137.527,-596.864,0,0
276832.925,138.242,-589.531,0,0
278134.55,140.08,-584.402,0,0
279436.175,141.036,-581.446,0,0
280737.8,140.589,-578.402,0,0
282039.425,140.616,-575.74,0,0
283341,138.669,-573.369,0,0
284643,137.195,-569.526,0,0
285944,135.721,-566.687,0,0
287246,132.056,-562.632,0,0
288548,129.775,-555.095,0,0
289849,131.851,-547.645,0,0
291151,134.949,-544.201,0,0
292452,135.462,-541.725,0,0
293754,134.951,-537.933,0,0
295056,134.911,-532.738,0,0
296357,136.743,-526.317,0,0
297659,141.011,-521.183,0,0
298960.525,145.917,-517.767,0,0
300262.15,150.839,-515.083,0,0
301563.775,157.091,-513.224,0,0
302865.4,163.756,-514.937,0,0
304167.025,168.488,-517.584,0,0
305468.65,172.592,-521.391,0,0
306770.275,176.349,-526.264,0,0
308071.9,178.199,-533.556,0,0
309373.525,176.68,-540.739,0,0
310675.15,173.957,-546.978,0,0
311976.775,169.302,-552.735,0,0
313278.4,163.389,-556.924,0,0
314580,157.491,-559.748,0,0
315882,151.138,-562.54,0,0
317183,143.482,-564.436,0,0
318485,135.102,-564.522,0,0
319787,126.666,-562.935,0,0
321088,118.975,-559.734,0,0
322390,111.849,-554.906,0,0
323691,106.797,-548.714,0,0
324993,104.031,-542.784,0,0
326295,102.742,-538.216,0,0
327596,101.662,-535.048,0,0
328898,100.104,-532.919,0,0
330200,97.9252,-531.252,0,0
331501.125,95.0539,-529.596,0,0
332802.75,91.6656,-527.756,0,0
334104.375,87.8978,-525.564,0,0
335406.0,83.8297,-522.444,0,0
336707.625,80.1243,-518.629,0,0
338009.25,76.9815,-514.634,0,0
339310.875,74.2045,-510.508,0,0
340612.5,71.8111,-506.355,0,0
341914.125,69.5957,-502.313,0,0
343215.75,67.4708,-498.361,0,0
344517.375,65.3835,-494.366,0,0
345819.0,63.2479,-490.274,0,0
347121,61.2322,-485.737,0,0
348422,59.7546,-480.987,0,0
349724,58.8436,-476.307,0,0
351025,58.1374,-471.97,0,0
352327,57.5819,-467.705,0,0
353629,57.1975,-463.7,0,0
354930,56.6927,-459.698,0,0
356232,56.4588,-455.825,0,0
357534,56.3017,-451.922,0,0
358835,56.0652,-448.107,0,0
360137,56.2388,-444.224,0,0
361438,56.4691,-440.581,0,0
362740.1,56.5722,-437.052,0,0
364041.725,56.8255,-433.296,0,0
365343.35,57.3669,-429.55,0,0
366644.975,57.9608,-426.221,0,0
367946.6,58.1954,-422.445,0,0
369248.225,59.1092,-418.109,0,0
370549.85,60.8955,-413.858,0,0
371851.475,63.4916,-410.049,0,0
373153.1,66.8269,-407.28,0,0
374454.725,69.9662,-405.599,0,0
375756.35,72.6699,-404.515,0,0
377057.975,75.1434,-403.916,0,0
378359.6,77.2484,-403.867,0,0
379661,78.5616,-403.959,0,0
380963,80.0435,-403.544,0,0
382264,82.1537,-404.397,0,0
383566,83.0141,-406.608,0,0
384868,81.8792,-408.777,0,0
386169,79.8087,-409.875,0,0
387471,77.1892,-410.215,0,0
388773,74.4052,-409.277,0,0
390074,72.4307,-407.681,0,0
391376,70.8157,-406.286,0,0
392677,68.9236,-405.192,0,0
393979,66.4579,-403.575,0,0
395280.7,64.043,-401.259,0,0
396582.325,61.8742,-398.335,0,0
397883.95,60.173,-394.901,0,0
399185.575,59.1213,-391.329,0,0
400006.6,58.67,-389.123,0,0