File: Accelerated corrosion test data/2025-10-09_06-00-03/sample_3.csv
Frequency (Hz),Impedance (ohms),Phase (Radians),Temperature (C),Humidity (%)
10000.0,252.311,-11790.3,0,0
11301.625,224.494,-10443.8,0,0
12603.25,204.038,-9373.06,0,0
13904.875,185.642,-8500.66,0,0
15206.5,173.785,-7769.71,0,0
16508.125,162.271,-7175.44,0,0
17809.75,157.704,-6646.04,0,0
19111.375,147.025,-6195.15,0,0
20413.0,159.282,-5795.04,0,0
21714.625,139.322,-5473.96,0,0
23016.25,128.555,-5168.4,0,0
24317.875,119.282,-4889.13,0,0
25619.5,113.91,-4641.48,0,0
26921.1,108.627,-4411.37,0,0
28222.7,104.057,-4204.89,0,0
29524.4,109.33,-4027.51,0,0
30826,101.454,-3855.82,0,0
32127.6,101.759,-3691.55,0,0
33429.2,100.069,-3567.05,0,0
34730.9,88.1623,-3428.95,0,0
36032.5,83.4404,-3301.09,0,0
37334.1,80.4108,-3183.32,0,0
38635.7,78.2707,-3073.39,0,0
39937.4,75.9072,-2970.82,0,0
41239,74.6592,-2873.92,0,0
42540.6,73.3249,-2784.14,0,0
43842.225,71.9167,-2698.76,0,0
45143.85,71.2345,-2619,0,0
46445.475,70.0967,-2543.54,0,0
47747.1,70.2647,-2470.64,0,0
49048.725,68.6394,-2405.36,0,0
50350.35,66.6705,-2340.18,0,0
51651.975,66.3361,-2277.5,0,0
52953.6,66.5206,-2217.72,0,0
54255.225,69.4519,-2162.85,0,0
55556.85,66.7165,-2115.45,0,0
56858.475,61.889,-2062.58,0,0
58160.1,61.251,-2010.72,0,0
59461.7,61.7849,-1961.4,0,0
60763.3,63.181,-1914.75,0,0
62065,65.1621,-1870.11,0,0
63366.6,68.6846,-1826.53,0,0
64668.2,77.4118,-1784.67,0,0
65969.8,92.1317,-1759,0,0
67271.5,76.206,-1733.87,0,0
68573.1,76.3183,-1696.28,0,0
69874.7,76.0323,-1667.02,0,0
71176.3,70.8259,-1636.59,0,0
72478,69.4733,-1603.95,0,0
73779.6,67.9526,-1575.67,0,0
75081.2,64.3706,-1547.49,0,0
76382.825,60.7741,-1518.27,0,0
77684.45,58.2764,-1489.38,0,0
78986.075,56.0083,-1460.81,0,0
80287.7,54.4077,-1432.82,0,0
81589.325,53.449,-1405.65,0,0
82890.95,52.882,-1379.2,0,0
84192.575,52.5959,-1353.51,0,0
85494.2,52.5388,-1328.52,0,0
86795.825,52.6362,-1304.18,0,0
88097.45,53.2232,-1280.2,0,0
89399.075,54.4875,-1256.49,0,0
90700.7,56.8085,-1234.64,0,0
92002.3,59.3233,-1213.82,0,0
93303.9,62.537,-1195.11,0,0
94605.6,63.5634,-1180.77,0,0
95907.2,58.3015,-1163.18,0,0
97208.8,56.9601,-1142.04,0,0
98510.4,56.7677,-1122.63,0,0
99812.1,56.1521,-1103.83,0,0
101114,55.564,-1084.14,0,0
102415,56.7375,-1063.63,0,0
103717,60.5828,-1045.88,0,0
105019,64.0052,-1031.91,0,0
106320.175,63.2083,-1018.39,0,0
107621.8,60.612,-1002.66,0,0
108923.425,58.806,-984.955,0,0
110225.05,58.8069,-966.353,0,0
111526.675,61.0322,-948.486,0,0
112828.3,63.3612,-932.492,0,0
114129.925,64.8222,-916.498,0,0
115431.55,66.968,-899.629,0,0
116733.175,70.7299,-883.123,0,0
118034.8,76.3983,-867.29,0,0
119336.425,83.0837,-855.411,0,0
120638.05,88.911,-848.9,0,0
121939.675,86.3526,-840.705,0,0
123241,86.7805,-827.378,0,0
124543,88.2476,-816.065,0,0
125845,89.5608,-805.758,0,0
127146,88.8379,-795.997,0,0
128448,87.1338,-785.244,0,0
129749,85.5352,-772.095,0,0
131051,86.5704,-759.142,0,0
132353,85.9826,-748.024,0,0
133654,85.4257,-736.01,0,0
134956,83.8905,-723.478,0,0
136258,82.5784,-710.039,0,0
137559,82.477,-694.892,0,0
138860.775,83.8948,-681.508,0,0
140162.4,82.9778,-668.004,0,0
141464.025,82.8142,-653.885,0,0
142765.65,82.0617,-638.049,0,0
144067.275,82.4146,-620.904,0,0
145368.9,83.939,-603.03,0,0
146670.525,86.5732,-584.172,0,0
147972.15,90.9268,-564.404,0,0
149273.775,97.3185,-544.241,0,0
150575.4,107.582,-523.761,0,0
151877.025,120.098,-507.015,0,0
153178.65,132.943,-493.061,0,0
154480,143.168,-480.861,0,0
155782,151.548,-465.357,0,0
157084,162.86,-447.66,0,0
158385,179.475,-435.572,0,0
159687,184.605,-421.785,0,0
160988,199.912,-393.472,0,0
162290,225.483,-368.026,0,0
163592,261.585,-348.08,0,0
164893,309.433,-335.898,0,0
166195,362.076,-348.629,0,0
167497,400.384,-381.129,0,0
168798,422.21,-417.151,0,0
170100,423.393,-458.378,0,0
171401.375,409.194,-475.571,0,0
172703.0,403.375,-480.234,0,0
174004.625,411.423,-487.037,0,0
175306.25,415.852,-505.739,0,0
176607.875,409.69,-525.061,0,0
177909.5,388.69,-542.879,0,0
179211.125,364.752,-535.441,0,0
180512.75,359.331,-521.217,0,0
181814.375,363.974,-517.208,0,0
183116.0,357.054,-523.857,0,0
184417.625,342.421,-521.565,0,0
185719.25,328.727,-509.236,0,0
187021,322.566,-486.452,0,0
188322,328.449,-466.813,0,0
189624,334.087,-452.42,0,0
190926,343.905,-438.164,0,0
192227,352.98,-424.739,0,0
193529,363.809,-407.029,0,0
194831,386.717,-388.503,0,0
196132,418.923,-384.292,0,0
197434,441.187,-396.35,0,0
198735,454.41,-402.049,0,0
200037,465.599,-405.248,0,0
201339,471.242,-402.375,0,0
202640.35,488.65,-392.866,0,0
203941.975,518.364,-390.808,0,0
205243.6,547.739,-402.857,0,0
206545.225,561.898,-420.446,0,0
207846.85,578.105,-420.694,0,0
209148.475,609.638,-427.844,0,0
210450.1,642.727,-448.861,0,0
211751.725,670.47,-480.073,0,0
213053.35,691.745,-515.109,0,0
214354.975,706.825,-556.967,0,0
215656.6,715.372,-601.803,0,0
216958.225,712.94,-650.545,0,0
218259.85,699.44,-693.758,0,0
219561,680.441,-731.085,0,0
220863,661.064,-769.676,0,0
222165,629.994,-806.705,0,0
223466,587.43,-833.362,0,0
224768,543.56,-836.909,0,0
226070,520.33,-832.785,0,0
227371,504.292,-841.145,0,0
228673,479.981,-853.937,0,0
229974,450.83,-860.229,0,0
231276,422.428,-861.831,0,0
232578,396.774,-859.56,0,0
233879,373.012,-856.4,0,0
235180.95,350.044,-852.112,0,0
236482.575,326.146,-847.281,0,0
237784.2,302.205,-839.107,0,0
239085.825,278.135,-825.57,0,0
240387.45,260.276,-807.645,0,0
241689.075,246.38,-790.218,0,0
242990.7,237.759,-772.02,0,0
244292.325,232.286,-756.944,0,0
245593.95,227.777,-745.009,0,0
246895.575,222.312,-733.406,0,0
248197.2,218.073,-721.383,0,0
249498.825,217.263,-710.229,0,0
250800,216.056,-703.93,0,0
252102,210.385,-698.314,0,0
253404,202.124,-688.48,0,0
254705,196.609,-673.418,0,0
256007,196.721,-656.295,0,0
257309,204.568,-641.41,0,0
258610,213.562,-633.261,0,0
259912,224.319,-625.412,0,0
261213,239.63,-625.386,0,0
262515,250.717,-636.97,0,0
263817,250.255,-651.414,0,0
265118,241.006,-663.069,0,0
266420,226.476,-667.268,0,0
267721.55,212.234,-663.597,0,0
269023.175,202.524,-654.903,0,0
270324.8,197.038,-646.021,0,0
271626.425,194.393,-636.702,0,0
272928.05,194.044,-629.538,0,0
274229.675,193.102,-621.895,0,0
275531.3,196.09,-613.377,0,0
276832.925,203.571,-608.177,0,0
278134.55,211.56,-610.003,0,0
279436.175,215.252,-616.537,0,0
280737.8,213.2,-624.006,0,0
282039.425,207.316,-629.364,0,0
283341,198.881,-631.658,0,0
284643,189.981,-630.563,0,0
285944,181.873,-626.437,0,0
287246,176.366,-619.775,0,0
288548,175.005,-613.329,0,0
289849,174.649,-610.265,0,0
291151,172.994,-608.303,0,0
292452,169.623,-605.859,0,0
293754,167.544,-600.697,0,0
295056,169.16,-596.733,0,0
296357,171.553,-596.614,0,0
297659,171.519,-599.29,0,0
298960.525,168.098,-602.317,0,0
300262.15,162.791,-603.792,0,0
301563.775,156.498,-603.831,0,0
302865.4,149.779,-601.988,0,0
304167.025,143.687,-598.809,0,0
305468.65,138.272,-594.492,0,0
306770.275,134.031,-589.29,0,0
308071.9,131.597,-584.287,0,0
309373.525,129.857,-580.784,0,0
310675.15,127.329,-578.294,0,0
311976.775,123.593,-575.651,0,0
313278.4,118.976,-571.52,0,0
314580,115.373,-565.62,0,0
315882,113.959,-558.873,0,0
317183,114.848,-553.637,0,0
318485,115.54,-550.518,0,0
319787,115.352,-547.794,0,0
321088,115.254,-544.972,0,0
322390,116.077,-542.643,0,0
323691,116.812,-542.545,0,0
324993,115.458,-543.406,0,0
326295,112.275,-543.887,0,0
327596,108.063,-543.269,0,0
328898,103.698,-541.378,0,0
330200,99.5398,-538.761,0,0
331501.125,95.4491,-535.926,0,0
332802.75,91.0592,-532.431,0,0
334104.375,86.6356,-528.072,0,0
335406.0,82.8256,-522.516,0,0
336707.625,80.1621,-516.569,0,0
338009.25,78.166,-510.531,0,0
339310.875,76.8042,-504.089,0,0
340612.5,76.8948,-497.336,0,0
341914.125,78.665,-491.404,0,0
343215.75,81.331,-487.569,0,0
344517.375,83.1284,-485.475,0,0
345819.0,83.3743,-483.847,0,0
347121,83.0022,-481.571,0,0
348422,82.3803,-478.95,0,0
349724,81.9745,-475.58,0,0
351025,82.6977,-472.065,0,0
352327,84.3347,-470.093,0,0
353629,84.6936,-469.794,0,0
354930,83.1073,-468.818,0,0
356232,81.4195,-466.727,0,0
357534,79.7517,-464.08,0,0
358835,78.495,-460.597,0,0
360137,78.2633,-457.082,0,0
361438,78.3222,-454.222,0,0
362740.1,78.1636,-451.312,0,0
364041.725,78.6081,-448.059,0,0
365343.35,80.1549,-445.978,0,0
366644.975,80.5858,-445.74,0,0
367946.6,78.865,-445.152,0,0
369248.225,76.297,-442.353,0,0
370549.85,75.9209,-437.781,0,0
371851.475,77.7754,-435.088,0,0
373153.1,78.1792,-434.831,0,0
374454.725,76.4044,-433.719,0,0
375756.35,74.5273,-431.012,0,0
377057.975,73.7096,-427.267,0,0
378359.6,74.0814,-423.808,0,0
379661,75.0664,-421.11,0,0
380963,75.9228,-419.435,0,0
382264,76.1635,-417.997,0,0
383566,75.9546,-416.82,0,0
384868,75.039,-415.497,0,0
386169,73.8147,-413.414,0,0
387471,72.6652,-410.81,0,0
388773,71.6885,-407.728,0,0
390074,71.2397,-403.921,0,0
391376,71.8364,-399.942,0,0
392677,73.5268,-396.289,0,0
393979,75.9733,-393.799,0,0
395280.7,78.3424,-392.506,0,0
396582.325,80.2382,-392.109,0,0
397883.95,81.3893,-392.467,0,0
399185.575,81.3056,-393.042,0,0
400006.6,80.7547,-393.128,0,0