File: Accelerated corrosion test data/2025-10-09_06-00-03/sample_6.csv
Frequency (Hz),Impedance (ohms),Phase (Radians),Temperature (C),Humidity (%)
10000.0,4217.03,-6555.63,0,0
11301.625,3588.41,-6174.46,0,0
12603.25,3088.19,-5810.21,0,0
13904.875,2683.6,-5475.53,0,0
15206.5,2352.39,-5163.85,0,0
16508.125,2079.73,-4878.74,0,0
17809.75,1852.21,-4618.77,0,0
19111.375,1662.61,-4379.27,0,0
20413.0,1498.85,-4163.03,0,0
21714.625,1358.86,-3962.04,0,0
23016.25,1242.75,-3775.67,0,0
24317.875,1137.32,-3614.11,0,0
25619.5,1045.01,-3458.55,0,0
26921.1,964.282,-3314.12,0,0
28222.7,894.932,-3181.21,0,0
29524.4,831.251,-3054.73,0,0
30826,777.225,-2940.31,0,0
32127.6,728.394,-2830.06,0,0
33429.2,690.861,-2731.76,0,0
34730.9,650.155,-2643.61,0,0
36032.5,611.659,-2560.31,0,0
37334.1,575.401,-2476.25,0,0
38635.7,543.276,-2396.28,0,0
39937.4,518.006,-2319.34,0,0
41239,495.623,-2250.48,0,0
42540.6,473.242,-2187.57,0,0
43842.225,452.201,-2120.92,0,0
45143.85,438.88,-2060.36,0,0
46445.475,428.024,-2008.35,0,0
47747.1,414.778,-1962.59,0,0
49048.725,399.357,-1921.19,0,0
50350.35,377.907,-1881.29,0,0
51651.975,356.785,-1835.56,0,0
52953.6,340.076,-1790.24,0,0
54255.225,323.107,-1747.61,0,0
55556.85,307.874,-1704.78,0,0
56858.475,295.757,-1659.22,0,0
58160.1,289.451,-1619.81,0,0
59461.7,280.689,-1584.4,0,0
60763.3,270.887,-1548.88,0,0
62065,263.052,-1513.86,0,0
63366.6,259.238,-1477.74,0,0
64668.2,254.182,-1452.49,0,0
65969.8,244.683,-1423.99,0,0
67271.5,234.019,-1393.07,0,0
68573.1,228.368,-1359.85,0,0
69874.7,226.688,-1329.87,0,0
71176.3,226.296,-1303.69,0,0
72478,224.144,-1281.63,0,0
73779.6,219.2,-1259.78,0,0
75081.2,214.802,-1236.5,0,0
76382.825,210.713,-1214.6,0,0
77684.45,206.57,-1193.02,0,0
78986.075,202.52,-1171.45,0,0
80287.7,199.153,-1150.24,0,0
81589.325,196.449,-1129.58,0,0
82890.95,194.115,-1110.18,0,0
84192.575,191.662,-1091.16,0,0
85494.2,189.988,-1073.42,0,0
86795.825,186.273,-1055.85,0,0
88097.45,184.057,-1036.59,0,0
89399.075,184.866,-1018.57,0,0
90700.7,185.771,-1004.87,0,0
92002.3,182.726,-993.103,0,0
93303.9,178.221,-978.418,0,0
94605.6,175.59,-961.634,0,0
95907.2,175.042,-948.017,0,0
97208.8,171.717,-936.545,0,0
98510.4,166.605,-921.162,0,0
99812.1,165.347,-906.073,0,0
101114,164.333,-894.21,0,0
102415,160.498,-882.068,0,0
103717,156.213,-870.747,0,0
105019,148.41,-858.816,0,0
106320.175,139.423,-840.668,0,0
107621.8,136.504,-818.693,0,0
108923.425,137.916,-799.26,0,0
110225.05,140.445,-781.232,0,0
111526.675,144.904,-764.039,0,0
112828.3,152.112,-751.463,0,0
114129.925,157.232,-740.937,0,0
115431.55,162.595,-731.322,0,0
116733.175,170.274,-726.517,0,0
118034.8,166.355,-727.037,0,0
119336.425,159.545,-716.764,0,0
120638.05,159.908,-703.516,0,0
121939.675,160.351,-699.457,0,0
123241,154.955,-690.008,0,0
124543,152.318,-680.141,0,0
125845,148.601,-670.08,0,0
127146,144.506,-658.274,0,0
128448,142.531,-643.856,0,0
129749,144.331,-631.588,0,0
131051,144.276,-621.915,0,0
132353,142.934,-611.361,0,0
133654,141.716,-600.227,0,0
134956,140.26,-588.092,0,0
136258,139.627,-574.551,0,0
137559,140.857,-560.865,0,0
138860.775,143.033,-547.911,0,0
140162.4,145.869,-535.121,0,0
141464.025,150.712,-522.849,0,0
142765.65,155.412,-513.626,0,0
144067.275,158.591,-504.33,0,0
145368.9,162.246,-495.083,0,0
146670.525,164.947,-487.358,0,0
147972.15,165.489,-479.719,0,0
149273.775,164.604,-469.105,0,0
150575.4,164.764,-455.67,0,0
151877.025,168.092,-439.718,0,0
153178.65,178.126,-426.25,0,0
154480,185.363,-420.155,0,0
155782,189.337,-409.56,0,0
157084,198.821,-401.268,0,0
158385,202.893,-398.229,0,0
159687,203.328,-391.066,0,0
160988,204.696,-381.492,0,0
162290,206.027,-371.494,0,0
163592,207.807,-359.024,0,0
164893,210.315,-345.787,0,0
166195,214.84,-330.19,0,0
167497,221.455,-315.937,0,0
168798,228.999,-300.657,0,0
170100,237.76,-286.356,0,0
171401.375,246.926,-271.859,0,0
172703.0,256.65,-256.638,0,0
174004.625,267.033,-241.001,0,0
175306.25,277.987,-223.167,0,0
176607.875,291.85,-202.713,0,0
177909.5,310.194,-180.547,0,0
179211.125,334.943,-157.98,0,0
180512.75,366.661,-140.718,0,0
181814.375,398.435,-128.751,0,0
183116.0,431.949,-119.89,0,0
184417.625,462.888,-114.492,0,0
185719.25,492.119,-105.796,0,0
187021,525.941,-91.8681,0,0
188322,570.234,-73.383,0,0
189624,634.748,-58.6025,0,0
190926,718.237,-64.7471,0,0
192227,798.677,-102.977,0,0
193529,863.746,-155.441,0,0
194831,920.257,-217.971,0,0
196132,966.059,-291.023,0,0
197434,998.975,-372.513,0,0
198735,1016.52,-459.163,0,0
200037,1020.86,-549.359,0,0
201339,1006.89,-643.067,0,0
202640.35,970.213,-731.055,0,0
203941.975,918.333,-803.623,0,0
205243.6,858.577,-862.075,0,0
206545.225,793.482,-906.534,0,0
207846.85,727.362,-937.557,0,0
209148.475,661.829,-957.392,0,0
210450.1,598.361,-967.149,0,0
211751.725,535.476,-966.947,0,0
213053.35,479.856,-953.993,0,0
214354.975,434.547,-937.708,0,0
215656.6,395.171,-919.242,0,0
216958.225,360.725,-899.533,0,0
218259.85,330.265,-878.806,0,0
219561,303.549,-856.575,0,0
220863,280.842,-833.219,0,0
222165,262.145,-808.92,0,0
223466,247.791,-783.507,0,0
224768,239.811,-758.12,0,0
226070,238.61,-736.645,0,0
227371,239.87,-723.181,0,0
228673,236.282,-715.104,0,0
229974,228.718,-705.594,0,0
231276,220.885,-693.414,0,0
232578,214.452,-679.689,0,0
233879,210.125,-665.183,0,0
235180.95,207.738,-650.753,0,0
236482.575,207.279,-636.817,0,0
237784.2,208.261,-623.651,0,0
239085.825,210.706,-611.102,0,0
240387.45,214.879,-599.426,0,0
241689.075,220.419,-589.075,0,0
242990.7,227.282,-580.03,0,0
244292.325,235.894,-572.321,0,0
245593.95,246.103,-567.524,0,0
246895.575,256.348,-565.717,0,0
248197.2,266.18,-566.445,0,0
249498.825,274.36,-568.991,0,0
250800,283.586,-570.898,0,0
252102,296.407,-577.683,0,0
253404,306.642,-592.509,0,0
254705,309.971,-611.887,0,0
256007,305.154,-632.184,0,0
257309,293.391,-648.976,0,0
258610,278.243,-660.704,0,0
259912,261.694,-668.086,0,0
261213,245.092,-671.378,0,0
262515,229.399,-671.305,0,0
263817,215.672,-669.198,0,0
265118,203.228,-666.099,0,0
266420,191.65,-662.009,0,0
267721.55,181.129,-657.498,0,0
269023.175,171.356,-652.36,0,0
270324.8,162.299,-646.868,0,0
271626.425,153.834,-641.094,0,0
272928.05,146.133,-634.73,0,0
274229.675,139.018,-628.173,0,0
275531.3,132.539,-621.422,0,0
276832.925,126.887,-614.506,0,0
278134.55,121.807,-607.599,0,0
279436.175,117.272,-600.596,0,0
280737.8,113.584,-593.43,0,0
282039.425,110.97,-587.032,0,0
283341,108.192,-581.284,0,0
284643,105.517,-575.386,0,0
285944,103.718,-569.618,0,0
287246,102.13,-565.01,0,0
288548,99.8764,-560.802,0,0
289849,97.4199,-556.327,0,0
291151,95.1339,-551.695,0,0
292452,93.1464,-547.265,0,0
293754,91.1076,-543.235,0,0
295056,88.6171,-539.312,0,0
296357,85.7171,-534.853,0,0
297659,83.1843,-529.469,0,0
298960.525,82.0197,-523.911,0,0
300262.15,81.5105,-519.518,0,0
301563.775,80.5273,-515.767,0,0
302865.4,79.2326,-511.982,0,0
304167.025,77.9593,-507.99,0,0
305468.65,76.983,-504.139,0,0
306770.275,76.2952,-500.627,0,0
308071.9,75.2176,-497.599,0,0
309373.525,73.8186,-494.427,0,0
310675.15,72.422,-491.098,0,0
311976.775,71.0161,-487.925,0,0
313278.4,69.4821,-484.602,0,0
314580,67.9623,-481.037,0,0
315882,66.6485,-477.475,0,0
317183,65.5085,-473.994,0,0
318485,64.2483,-470.717,0,0
319787,63.0855,-467.235,0,0
321088,61.8636,-463.659,0,0
322390,60.8671,-460.096,0,0
323691,60.0741,-456.702,0,0
324993,59.2107,-453.448,0,0
326295,58.2371,-450.233,0,0
327596,57.2469,-446.906,0,0
328898,56.4116,-443.532,0,0
330200,55.5804,-440.169,0,0
331501.125,54.8336,-436.778,0,0
332802.75,54.222,-433.39,0,0
334104.375,53.6763,-429.991,0,0
335406.0,53.3739,-426.703,0,0
336707.625,53.0424,-423.569,0,0
338009.25,52.7225,-420.561,0,0
339310.875,52.3179,-417.51,0,0
340612.5,52.0191,-414.473,0,0
341914.125,51.819,-411.374,0,0
343215.75,51.8401,-408.495,0,0
344517.375,51.8012,-406.173,0,0
345819.0,51.1177,-403.621,0,0
347121,50.4981,-400.699,0,0
348422,50.2114,-397.678,0,0
349724,50.0373,-394.713,0,0
351025,50.0014,-391.871,0,0
352327,50.0646,-389.109,0,0
353629,50.2015,-386.481,0,0
354930,50.2154,-384.093,0,0
356232,50.1224,-381.636,0,0
357534,50.0248,-379.164,0,0
358835,50.0196,-376.769,0,0
360137,49.9648,-374.478,0,0
361438,49.8233,-372.269,0,0
362740.1,49.5099,-369.938,0,0
364041.725,49.2687,-367.494,0,0
365343.35,49.0539,-365.01,0,0
366644.975,49.0081,-362.585,0,0
367946.6,48.9619,-360.188,0,0
369248.225,48.9226,-357.829,0,0
370549.85,48.9167,-355.415,0,0
371851.475,49.0416,-353.075,0,0
373153.1,49.2441,-350.951,0,0
374454.725,49.3089,-349.161,0,0
375756.35,48.8852,-347.337,0,0
377057.975,48.3558,-345.16,0,0
378359.6,47.9536,-342.824,0,0
379661,47.5565,-340.399,0,0
380963,47.1933,-337.783,0,0
382264,47.0576,-335.053,0,0
383566,47.4077,-332.543,0,0
384868,47.4151,-330.484,0,0
386169,47.1543,-328.157,0,0
387471,46.9549,-325.692,0,0
388773,46.8199,-323.17,0,0
390074,46.7531,-320.628,0,0
391376,46.7819,-318.031,0,0
392677,46.7945,-315.476,0,0
393979,46.8524,-312.898,0,0
395280.7,46.9544,-310.258,0,0
396582.325,47.1124,-307.609,0,0
397883.95,47.3311,-304.935,0,0
399185.575,47.5446,-302.219,0,0
400006.6,47.7186,-300.524,0,0