File: Accelerated corrosion test data/2025-10-09_06-00-03/sample_4.csv
Frequency (Hz),Impedance (ohms),Phase (Radians),Temperature (C),Humidity (%)
10000.0,264.898,-11866.6,0,0
11301.625,235.738,-10512.5,0,0
12603.25,213.993,-9431.29,0,0
13904.875,194.224,-8551.53,0,0
15206.5,181.539,-7827.4,0,0
16508.125,188.974,-7212.24,0,0
17809.75,156.695,-6705.52,0,0
19111.375,146.088,-6249.58,0,0
20413.0,141.282,-5849.44,0,0
21714.625,145.31,-5504.35,0,0
23016.25,125.683,-5204.74,0,0
24317.875,116.648,-4919.7,0,0
25619.5,112.934,-4667.36,0,0
26921.1,107.354,-4437.75,0,0
28222.7,120.111,-4234.04,0,0
29524.4,114.211,-4055.85,0,0
30826,99.2365,-3883.91,0,0
32127.6,100.237,-3723.86,0,0
33429.2,90.6864,-3583.02,0,0
34730.9,85.4626,-3444.58,0,0
36032.5,82.3487,-3317.4,0,0
37334.1,80.023,-3198.69,0,0
38635.7,77.4375,-3086.9,0,0
39937.4,77.2475,-2981.35,0,0
41239,80.4482,-2886.49,0,0
42540.6,79.1957,-2799.12,0,0
43842.225,74.2364,-2715.51,0,0
45143.85,71.5622,-2634.4,0,0
46445.475,70.6067,-2556.98,0,0
47747.1,70.3714,-2487.56,0,0
49048.725,66.244,-2418.43,0,0
50350.35,64.8775,-2351.05,0,0
51651.975,64.0963,-2286.53,0,0
52953.6,66.0007,-2223.66,0,0
54255.225,73.908,-2166.98,0,0
55556.85,72.113,-2124.13,0,0
56858.475,66.2085,-2070.47,0,0
58160.1,66.9444,-2017.77,0,0
59461.7,70.9979,-1967.62,0,0
60763.3,80.3776,-1929.63,0,0
62065,70.2885,-1896.12,0,0
63366.6,64.4253,-1851.04,0,0
64668.2,64.8105,-1807.56,0,0
65969.8,66.7431,-1767.19,0,0
67271.5,70.5068,-1731.03,0,0
68573.1,74.0714,-1702.11,0,0
69874.7,66.6233,-1672.21,0,0
71176.3,64.9736,-1637.74,0,0
72478,59.4348,-1606.59,0,0
73779.6,57.9563,-1570.01,0,0
75081.2,59.9647,-1537.22,0,0
76382.825,62.4673,-1508.42,0,0
77684.45,65.1792,-1480.61,0,0
78986.075,64.0882,-1458.28,0,0
80287.7,61.0843,-1431.4,0,0
81589.325,60.5361,-1405.41,0,0
82890.95,59.2374,-1380.48,0,0
84192.575,58.0323,-1355.55,0,0
85494.2,57.1795,-1331.38,0,0
86795.825,56.4627,-1307.72,0,0
88097.45,55.1625,-1285.18,0,0
89399.075,53.6239,-1260.99,0,0
90700.7,53.5238,-1237.83,0,0
92002.3,53.8116,-1214.76,0,0
93303.9,55.0949,-1193.98,0,0
94605.6,53.7061,-1173.71,0,0
95907.2,53.1412,-1151.25,0,0
97208.8,53.8952,-1129.56,0,0
98510.4,55.1146,-1108.16,0,0
99812.1,57.5605,-1087.48,0,0
101114,61.7034,-1068.73,0,0
102415,61.1592,-1054.31,0,0
103717,58.156,-1031.82,0,0
105019,61.7283,-1008.33,0,0
106320.175,68.1155,-987.866,0,0
107621.8,74.8035,-969.901,0,0
108923.425,82.9432,-953.023,0,0
110225.05,91.081,-940.194,0,0
111526.675,97.3075,-929.043,0,0
112828.3,102.585,-918.93,0,0
114129.925,106.351,-910.118,0,0
115431.55,108.463,-902.016,0,0
116733.175,108.268,-893.716,0,0
118034.8,106.303,-883.119,0,0
119336.425,107.351,-869.411,0,0
120638.05,112.629,-864.438,0,0
121939.675,105.696,-858.288,0,0
123241,100.83,-846.093,0,0
124543,97.7535,-833.588,0,0
125845,95.6848,-821.299,0,0
127146,92.4867,-810.584,0,0
128448,87.5472,-798.913,0,0
129749,80.9535,-784.49,0,0
131051,75.9014,-766.838,0,0
132353,73.1858,-748.088,0,0
133654,72.3283,-729.102,0,0
134956,72.8745,-710.218,0,0
136258,74.968,-691.773,0,0
137559,77.7118,-674.41,0,0
138860.775,79.5955,-656.667,0,0
140162.4,82.8481,-637.681,0,0
141464.025,87.9193,-618.705,0,0
142765.65,93.8125,-600.516,0,0
144067.275,100.472,-582.316,0,0
145368.9,108.073,-563.79,0,0
146670.525,117.307,-545.137,0,0
147972.15,128.082,-527.087,0,0
149273.775,140.633,-508.84,0,0
150575.4,155.324,-491.187,0,0
151877.025,173.919,-474.78,0,0
153178.65,196.05,-462.52,0,0
154480,217.684,-457.291,0,0
155782,234.789,-453.107,0,0
157084,250.332,-451.561,0,0
158385,265.112,-446.124,0,0
159687,284.992,-443.476,0,0
160988,303.61,-450.658,0,0
162290,310.24,-457.199,0,0
163592,314.785,-456.678,0,0
164893,323.952,-450.663,0,0
166195,338.39,-443.786,0,0
167497,364.355,-441.821,0,0
168798,392.203,-457.857,0,0
170100,408.985,-485.317,0,0
171401.375,407.009,-523.597,0,0
172703.0,382.862,-549.771,0,0
174004.625,349.847,-556.228,0,0
175306.25,321.967,-545.557,0,0
176607.875,303.451,-524.245,0,0
177909.5,296.554,-500.576,0,0
179211.125,295.806,-479.738,0,0
180512.75,299.185,-460.774,0,0
181814.375,303.485,-444.068,0,0
183116.0,306.593,-427.205,0,0
184417.625,310.86,-406.608,0,0
185719.25,318.623,-383.321,0,0
187021,331.177,-358.017,0,0
188322,348.771,-331.417,0,0
189624,373.154,-303.819,0,0
190926,406.276,-277.134,0,0
192227,448.34,-254.898,0,0
193529,498.341,-240.118,0,0
194831,553.448,-234.243,0,0
196132,612.435,-236.494,0,0
197434,678.658,-247.975,0,0
198735,752.11,-277.368,0,0
200037,823.918,-334.27,0,0
201339,875.12,-416.215,0,0
202640.35,896.385,-507.038,0,0
203941.975,894.851,-591.42,0,0
205243.6,875.759,-669.774,0,0
206545.225,844.569,-735.284,0,0
207846.85,806.227,-799.226,0,0
209148.475,745.807,-846.565,0,0
210450.1,685.92,-867.573,0,0
211751.725,634.685,-873.78,0,0
213053.35,595.251,-870.61,0,0
214354.975,566.414,-863.631,0,0
215656.6,550.738,-862.881,0,0
216958.225,530.584,-871.033,0,0
218259.85,507.817,-875.344,0,0
219561,486.33,-879.131,0,0
220863,463.743,-883.637,0,0
222165,440.105,-885.686,0,0
223466,417.448,-885.512,0,0
224768,395.841,-885.714,0,0
226070,371.204,-886.718,0,0
227371,343.609,-882.712,0,0
228673,315.589,-873.736,0,0
229974,291.255,-858.047,0,0
231276,272.815,-840.06,0,0
232578,258.69,-822.456,0,0
233879,247.855,-805.328,0,0
235180.95,239.482,-789.147,0,0
236482.575,232.969,-774.956,0,0
237784.2,227.443,-760.195,0,0
239085.825,225.46,-746.791,0,0
240387.45,224.544,-736.692,0,0
241689.075,223,-728.931,0,0
242990.7,220.016,-722.702,0,0
244292.325,215.322,-716.783,0,0
245593.95,208.802,-709.12,0,0
246895.575,203.33,-699.141,0,0
248197.2,200.714,-688.724,0,0
249498.825,198.348,-680.051,0,0
250800,195.935,-671.732,0,0
252102,192.732,-664.27,0,0
253404,186.919,-654.945,0,0
254705,182.54,-641.334,0,0
256007,180.652,-625.489,0,0
257309,183.56,-607.42,0,0
258610,191.949,-589.786,0,0
259912,206.214,-574.511,0,0
261213,225.445,-564.603,0,0
262515,245.763,-562.597,0,0
263817,266.73,-565.941,0,0
265118,284.689,-577.206,0,0
266420,298.696,-594.333,0,0
267721.55,303.86,-616.19,0,0
269023.175,301.255,-637.761,0,0
270324.8,287.931,-655.083,0,0
271626.425,275.861,-661.977,0,0
272928.05,266.779,-670.179,0,0
274229.675,254.835,-679.068,0,0
275531.3,237.425,-686.314,0,0
276832.925,215.853,-685.797,0,0
278134.55,196.872,-676.161,0,0
279436.175,185.709,-660.726,0,0
280737.8,183.787,-648.448,0,0
282039.425,182.319,-641.094,0,0
283341,181.619,-633.634,0,0
284643,182.299,-630.817,0,0
285944,179.352,-629.655,0,0
287246,172.07,-626.383,0,0
288548,165.83,-616.77,0,0
289849,166.471,-602.921,0,0
291151,175.928,-593.326,0,0
292452,188.219,-592.645,0,0
293754,197.419,-600.645,0,0
295056,198.556,-613.347,0,0
296357,190.887,-624.165,0,0
297659,179.246,-628.337,0,0
298960.525,169.29,-627.962,0,0
300262.15,160.797,-626.291,0,0
301563.775,152.472,-623.733,0,0
302865.4,145.113,-619.402,0,0
304167.025,138.612,-614.869,0,0
305468.65,132.786,-609.286,0,0
306770.275,128.556,-603.005,0,0
308071.9,126.157,-597.285,0,0
309373.525,124.427,-593.253,0,0
310675.15,121.707,-590.201,0,0
311976.775,118.183,-586.39,0,0
313278.4,115.066,-581.938,0,0
314580,113.017,-577.086,0,0
315882,111.848,-573.104,0,0
317183,110.801,-570.1,0,0
318485,109.548,-568.166,0,0
319787,107.38,-567.283,0,0
321088,103.503,-566.505,0,0
322390,97.3236,-564.999,0,0
323691,90.24,-560.187,0,0
324993,85.4046,-553.064,0,0
326295,82.5402,-546.344,0,0
327596,79.9865,-539.835,0,0
328898,77.9602,-532.835,0,0
330200,77.7924,-525.563,0,0
331501.125,79.0302,-519.789,0,0
332802.75,80.2542,-515.836,0,0
334104.375,80.2998,-512.922,0,0
335406.0,79.0862,-509.752,0,0
336707.625,77.1052,-505.792,0,0
338009.25,75.4169,-500.102,0,0
339310.875,75.1006,-493.823,0,0
340612.5,76.2373,-487.415,0,0
341914.125,79.0479,-481.62,0,0
343215.75,83.4556,-477.815,0,0
344517.375,87.2646,-476.852,0,0
345819.0,89.2158,-477.146,0,0
347121,89.3781,-477.669,0,0
348422,88.2372,-477.384,0,0
349724,86.3761,-476.273,0,0
351025,84.2312,-474.169,0,0
352327,82.4118,-471.219,0,0
353629,81.1381,-467.438,0,0
354930,81.2414,-463.719,0,0
356232,81.5475,-461.22,0,0
357534,81.0692,-459.186,0,0
358835,79.621,-456.74,0,0
360137,78.3072,-452.845,0,0
361438,77.9786,-448.69,0,0
362740.1,78.6384,-444.556,0,0
364041.725,79.6856,-441.425,0,0
365343.35,79.9195,-438.533,0,0
366644.975,79.9423,-434.598,0,0
367946.6,81.1982,-429.852,0,0
369248.225,84.0283,-425.225,0,0
370549.85,88.5646,-421.828,0,0
371851.475,93.8909,-420.563,0,0
373153.1,98.8259,-422.009,0,0
374454.725,101.202,-425.326,0,0
375756.35,100.98,-428.147,0,0
377057.975,99.9245,-429.406,0,0
378359.6,99.1288,-430.132,0,0
379661,97.9359,-430.95,0,0
380963,96.3899,-430.977,0,0
382264,94.888,-430.141,0,0
383566,95.7107,-430.109,0,0
384868,94.597,-433.166,0,0
386169,89.8728,-435.311,0,0
387471,83.8644,-434.04,0,0
388773,79.5488,-429.816,0,0
390074,78.483,-425.206,0,0
391376,79.2019,-423.209,0,0
392677,78.3855,-423.796,0,0
393979,74.2919,-423.888,0,0
395280.7,69.5856,-421.313,0,0
396582.325,65.7901,-417.076,0,0
397883.95,63.3048,-412.299,0,0
399185.575,61.573,-407.478,0,0
400006.6,60.8135,-404.284,0,0